timestamp,tp9,af7,af8,tp10,hr
1729906322.007,966.309,901.367,-29.297,-411.133,0.000
1729906322.011,-62.012,445.801,34.668,-1000.000,0.000
1729906322.015,-1000.000,-748.535,-231.934,-414.551,0.000
1729906322.019,-937.500,-707.520,-287.109,-937.012,0.000
1729906322.023,554.199,511.719,-59.082,156.250,0.000
1729906322.026,316.406,660.156,71.777,-1000.000,0.000
1729906322.030,-1000.000,-632.324,-265.137,-916.016,0.000
1729906322.034,-1000.000,-963.867,-307.617,646.484,0.000
1729906322.038,72.266,108.887,-138.184,307.129,0.000
1729906322.042,516.113,931.641,135.254,-1000.000,0.000
1729906322.046,-937.500,-273.926,-169.434,-1000.000,0.000
1729906322.050,-1000.000,-1000.000,-335.449,97.656,0.000
1729906322.054,-144.531,-274.414,-306.641,648.926,0.000
1729906322.058,959.961,-899.902,10.254,-874.023,0.000
1729906322.062,-384.766,165.039,-69.336,-1000.000,0.000
1729906322.065,-1000.000,-1000.000,-326.172,-180.176,0.000
1729906322.069,-472.656,-700.684,-349.121,-912.598,0.000
1729906322.073,-965.820,884.277,22.461,-142.090,0.000
1729906322.077,142.090,402.832,78.613,-1000.000,0.000
1729906322.081,-1000.000,-1000.000,-349.609,-480.957,0.000
1729906322.085,-1000.000,-1000.000,-490.723,-943.359,0.000
1729906322.089,473.145,231.934,-178.711,256.836,0.000
1729906322.093,313.477,708.496,80.566,-1000.000,0.000
1729906322.097,-1000.000,-706.543,-299.316,-1000.000,0.000
1729906322.101,-1000.000,-1000.000,-353.027,499.023,0.000
1729906322.105,-51.758,-135.742,-211.426,376.465,0.000
1729906322.108,551.758,964.355,111.328,-1000.000,0.000
1729906322.112,-885.742,-289.062,-205.078,-1000.000,0.000
1729906322.116,-1000.000,-1000.000,-446.289,-45.410,0.000
1729906322.120,-190.430,-415.527,-339.844,750.000,0.000
1729906322.124,-975.098,-938.965,5.859,-728.027,0.000
1729906322.128,-248.047,156.250,-72.266,-1000.000,0.000
1729906322.132,-1000.000,-1000.000,-383.301,-184.570,0.000
1729906322.136,-668.945,-911.133,-408.203,-891.113,0.000
1729906322.140,892.090,629.883,-43.945,-47.363,0.000
1729906322.144,222.656,366.699,-27.832,-1000.000,0.000
1729906322.147,-1000.000,-1000.000,-452.637,-604.492,0.000
1729906322.151,-1000.000,-1000.000,-423.340,989.746,0.000
1729906322.155,248.047,29.785,-161.133,266.113,0.000
1729906322.159,312.500,720.215,75.195,-1000.000,0.000
1729906322.163,-1000.000,-659.180,-278.320,-1000.000,0.000
1729906322.167,-1000.000,-1000.000,-417.480,318.848,0.000
1729906322.171,-69.824,-198.242,-306.152,471.191,0.000
1729906322.175,593.262,977.051,-97.656,-997.070,0.000
1729906322.179,-844.238,-213.379,-306.641,-1000.000,0.000
1729906322.183,-1000.000,-1000.000,-370.605,-119.141,0.000
1729906322.187,-351.074,-604.492,-336.426,855.469,0.000
1729906322.190,988.281,929.199,-11.230,-561.523,0.000
1729906322.194,-202.148,209.473,-59.082,-1000.000,0.000
1729906322.198,-1000.000,-1000.000,-328.125,-266.602,0.000
1729906322.202,-917.480,-1000.000,-351.562,-896.973,0.000
1729906322.206,566.406,314.941,-154.785,47.852,0.000
1729906322.210,272.461,497.559,-6.836,-1000.000,0.000
1729906322.214,-1000.000,-919.922,-302.734,-761.230,0.000
1729906322.218,-1000.000,-1000.000,-369.629,835.938,0.000
1729906322.222,11.230,-81.055,-217.285,287.598,0.000
1729906322.226,270.508,708.984,-28.809,-1000.000,0.000
1729906322.229,-1000.000,-577.148,-253.418,-1000.000,0.000
1729906322.233,-1000.000,-1000.000,-345.215,205.078,0.000
1729906322.237,-56.641,-323.242,-371.094,567.871,0.000
1729906322.241,507.324,886.230,-157.227,-937.988,0.000
1729906322.245,-895.996,-242.676,-267.578,-1000.000,0.000
1729906322.249,-1000.000,-1000.000,-344.727,-144.043,0.000
1729906322.253,-639.160,-788.574,-331.543,961.426,0.000
1729906322.257,491.211,525.391,-211.426,-385.742,0.000
1729906322.261,-521.973,161.621,-244.629,-1000.000,0.000
1729906322.265,-1000.000,-1000.000,-410.645,-419.922,0.000
1729906322.269,-1000.000,-965.332,-339.844,-940.918,0.000
1729906322.272,-225.586,22.461,-339.355,132.812,0.000
1729906322.276,-336.426,276.367,-361.328,-1000.000,0.000
1729906322.280,-1000.000,-543.457,-266.602,-960.938,0.000
1729906322.284,-957.520,-477.539,-81.543,572.266,0.000
1729906322.288,-1000.000,-234.863,-209.473,308.105,0.000
1729906322.292,-1000.000,-251.953,-402.344,-1000.000,0.000
1729906322.296,-1000.000,-379.395,-342.773,-1000.000,0.000
1729906322.300,-1000.000,-272.949,-77.637,-14.160,0.000
1729906322.304,-1000.000,-137.695,-151.855,535.156,0.000
1729906322.308,-1000.000,-108.887,-387.207,-904.785,0.000
1729906322.312,-1000.000,-195.801,-345.215,-1000.000,0.000
1729906322.315,-1000.000,-183.105,-128.906,-151.855,0.000
1729906322.319,-1000.000,33.691,-57.129,945.801,0.000
1729906322.323,-1000.000,-12.695,-311.523,-397.949,0.000
1729906322.327,-1000.000,-127.441,-450.684,-1000.000,0.000
1729906322.331,-1000.000,17.578,-122.559,-679.688,0.000
1729906322.335,-1000.000,158.203,83.008,860.352,0.000
1729906322.339,-1000.000,281.250,-120.117,156.250,0.000
1729906322.343,-1000.000,213.379,-295.898,-1000.000,0.000
1729906322.347,-1000.000,99.121,-152.832,-1000.000,0.000
1729906322.351,-1000.000,128.418,9.766,227.051,0.000
1729906322.354,-1000.000,209.961,-174.316,312.500,0.000
1729906322.358,-1000.000,207.031,-371.582,-1000.000,0.000
1729906322.362,-1000.000,106.445,-327.148,-1000.000,0.000
1729906322.366,-1000.000,122.559,-123.047,-69.824,0.000
1729906322.370,-1000.000,334.961,-143.555,601.562,0.000
1729906322.374,-1000.000,464.844,-334.473,-851.074,0.000
1729906322.378,-979.492,405.273,-282.227,-1000.000,0.000
1729906322.382,-1000.000,268.066,-34.180,-243.652,0.000
1729906322.386,-1000.000,197.266,-166.016,-924.805,0.000
1729906322.390,-203.125,541.016,-385.254,-95.703,0.000
1729906322.394,-402.344,545.898,-375.488,-1000.000,0.000
1729906322.397,-1000.000,269.531,-185.547,-687.012,0.000
1729906322.401,-1000.000,239.258,-88.867,895.508,0.000
1729906322.405,-116.211,568.848,-311.035,279.297,0.000
1729906322.409,50.293,706.543,-364.258,-1000.000,0.000
1729906322.413,-1000.000,208.984,-279.785,-1000.000,0.000
1729906322.417,-1000.000,130.371,-179.199,241.699,0.000
1729906322.421,-385.254,468.750,-222.656,402.344,0.000
1729906322.425,68.359,535.156,-389.648,-1000.000,0.000
1729906322.429,-982.910,340.820,-303.711,-1000.000,0.000
1729906322.433,-1000.000,323.242,-35.645,-86.914,0.000
1729906322.437,-791.992,454.590,-88.867,707.031,0.000
1729906322.440,-151.855,631.836,-310.547,-727.051,0.000
1729906322.444,-807.129,408.691,-360.352,-1000.000,0.000
1729906322.448,-1000.000,199.707,-156.738,-439.941,0.000
1729906322.452,-1000.000,269.531,-82.031,993.652,0.000
1729906322.456,-221.191,560.547,-268.066,-95.215,0.000
1729906322.460,-318.359,564.941,-342.773,-1000.000,0.000
1729906322.464,-1000.000,304.199,-151.367,-1000.000,0.000
1729906322.468,-1000.000,333.008,22.949,380.371,0.000
1729906322.472,-107.422,639.160,-202.637,322.266,0.000
1729906322.476,33.691,595.703,-418.457,-1000.000,0.000
1729906322.479,-1000.000,209.961,-287.598,-1000.000,0.000
1729906322.483,-1000.000,222.168,-57.617,-54.199,0.000
1729906322.487,-417.480,504.883,-136.719,238.281,0.000
1729906322.491,155.762,668.945,-278.809,-1000.000,0.000
1729906322.495,-961.426,312.988,-285.156,-1000.000,0.000
1729906322.499,-1000.000,193.848,-74.219,-366.699,0.000
1729906322.503,-955.566,267.090,-113.281,354.004,0.000
1729906322.507,-238.281,406.738,-381.348,-894.531,0.000
1729906322.511,-580.078,457.031,-316.406,-1000.000,0.000
1729906322.515,-1000.000,293.945,-91.309,-966.309,0.000
1729906322.519,-1000.000,349.609,-45.898,-107.422,0.000
1729906322.522,-227.051,608.398,-222.168,-508.301,0.000
1729906322.526,-171.387,567.383,-323.730,-1000.000,0.000
1729906322.530,-1000.000,326.172,-166.992,-1000.000,0.000
1729906322.534,-1000.000,265.625,-16.113,-175.781,0.000
1729906322.538,-75.684,651.855,-148.438,-45.898,0.000
1729906322.542,201.660,794.434,-321.289,-1000.000,0.000
1729906322.546,-1000.000,311.523,-265.625,-1000.000,0.000
1729906322.550,-1000.000,160.645,-110.840,-188.965,0.000
1729906322.554,-222.168,525.879,-205.078,155.762,0.000
1729906322.558,521.484,958.984,-179.688,-1000.000,0.000
1729906322.561,-820.312,449.707,-239.258,-1000.000,0.000
1729906322.565,-1000.000,-73.730,-271.484,-896.484,0.000
1729906322.569,-536.133,310.547,-279.785,-583.496,0.000
1729906322.573,990.234,996.094,1.465,-907.227,0.000
1729906322.007,966.309,901.367,-29.297,-411.133,0.000
1729906322.011,-62.012,445.801,34.668,-1000.000,0.000
1729906322.015,-1000.000,-748.535,-231.934,-414.551,0.000
1729906322.019,-937.500,-707.520,-287.109,-937.012,0.000
1729906322.023,554.199,511.719,-59.082,156.250,0.000
1729906322.026,316.406,660.156,71.777,-1000.000,0.000
1729906322.030,-1000.000,-632.324,-265.137,-916.016,0.000
1729906322.034,-1000.000,-963.867,-307.617,646.484,0.000
1729906322.038,72.266,108.887,-138.184,307.129,0.000
1729906322.042,516.113,931.641,135.254,-1000.000,0.000
1729906322.046,-937.500,-273.926,-169.434,-1000.000,0.000
1729906322.050,-1000.000,-1000.000,-335.449,97.656,0.000
1729906322.054,-144.531,-274.414,-306.641,648.926,0.000
1729906322.058,959.961,-899.902,10.254,-874.023,0.000
1729906322.062,-384.766,165.039,-69.336,-1000.000,0.000
1729906322.065,-1000.000,-1000.000,-326.172,-180.176,0.000
1729906322.069,-472.656,-700.684,-349.121,-912.598,0.000
1729906322.073,-965.820,884.277,22.461,-142.090,0.000
1729906322.077,142.090,402.832,78.613,-1000.000,0.000
1729906322.081,-1000.000,-1000.000,-349.609,-480.957,0.000
1729906322.085,-1000.000,-1000.000,-490.723,-943.359,0.000
1729906322.089,473.145,231.934,-178.711,256.836,0.000
1729906322.093,313.477,708.496,80.566,-1000.000,0.000
1729906322.097,-1000.000,-706.543,-299.316,-1000.000,0.000
1729906322.101,-1000.000,-1000.000,-353.027,499.023,0.000
1729906322.105,-51.758,-135.742,-211.426,376.465,0.000
1729906322.108,551.758,964.355,111.328,-1000.000,0.000
1729906322.112,-885.742,-289.062,-205.078,-1000.000,0.000
1729906322.116,-1000.000,-1000.000,-446.289,-45.410,0.000
1729906322.120,-190.430,-415.527,-339.844,750.000,0.000
1729906322.124,-975.098,-938.965,5.859,-728.027,0.000
1729906322.128,-248.047,156.250,-72.266,-1000.000,0.000
1729906322.132,-1000.000,-1000.000,-383.301,-184.570,0.000
1729906322.136,-668.945,-911.133,-408.203,-891.113,0.000
1729906322.140,892.090,629.883,-43.945,-47.363,0.000
1729906322.144,222.656,366.699,-27.832,-1000.000,0.000
1729906322.147,-1000.000,-1000.000,-452.637,-604.492,0.000
1729906322.151,-1000.000,-1000.000,-423.340,989.746,0.000
1729906322.155,248.047,29.785,-161.133,266.113,0.000
1729906322.159,312.500,720.215,75.195,-1000.000,0.000
1729906322.163,-1000.000,-659.180,-278.320,-1000.000,0.000
1729906322.167,-1000.000,-1000.000,-417.480,318.848,0.000
1729906322.171,-69.824,-198.242,-306.152,471.191,0.000
1729906322.175,593.262,977.051,-97.656,-997.070,0.000
1729906322.179,-844.238,-213.379,-306.641,-1000.000,0.000
1729906322.183,-1000.000,-1000.000,-370.605,-119.141,0.000
1729906322.187,-351.074,-604.492,-336.426,855.469,0.000
1729906322.190,988.281,929.199,-11.230,-561.523,0.000
1729906322.194,-202.148,209.473,-59.082,-1000.000,0.000
1729906322.198,-1000.000,-1000.000,-328.125,-266.602,0.000
1729906322.202,-917.480,-1000.000,-351.562,-896.973,0.000
1729906322.206,566.406,314.941,-154.785,47.852,0.000
1729906322.210,272.461,497.559,-6.836,-1000.000,0.000
1729906322.214,-1000.000,-919.922,-302.734,-761.230,0.000
1729906322.218,-1000.000,-1000.000,-369.629,835.938,0.000
1729906322.222,11.230,-81.055,-217.285,287.598,0.000
1729906322.226,270.508,708.984,-28.809,-1000.000,0.000
1729906322.229,-1000.000,-577.148,-253.418,-1000.000,0.000
1729906322.233,-1000.000,-1000.000,-345.215,205.078,0.000
1729906322.237,-56.641,-323.242,-371.094,567.871,0.000
1729906322.241,507.324,886.230,-157.227,-937.988,0.000
1729906322.245,-895.996,-242.676,-267.578,-1000.000,0.000
1729906322.249,-1000.000,-1000.000,-344.727,-144.043,0.000
1729906322.253,-639.160,-788.574,-331.543,961.426,0.000
1729906322.257,491.211,525.391,-211.426,-385.742,0.000
1729906322.261,-521.973,161.621,-244.629,-1000.000,0.000
1729906322.265,-1000.000,-1000.000,-410.645,-419.922,0.000
1729906322.269,-1000.000,-965.332,-339.844,-940.918,0.000
1729906322.272,-225.586,22.461,-339.355,132.812,0.000
1729906322.276,-336.426,276.367,-361.328,-1000.000,0.000
1729906322.280,-1000.000,-543.457,-266.602,-960.938,0.000
1729906322.284,-957.520,-477.539,-81.543,572.266,0.000
1729906322.288,-1000.000,-234.863,-209.473,308.105,0.000
1729906322.292,-1000.000,-251.953,-402.344,-1000.000,0.000
1729906322.296,-1000.000,-379.395,-342.773,-1000.000,0.000
1729906322.300,-1000.000,-272.949,-77.637,-14.160,0.000
1729906322.304,-1000.000,-137.695,-151.855,535.156,0.000
1729906322.308,-1000.000,-108.887,-387.207,-904.785,0.000
1729906322.312,-1000.000,-195.801,-345.215,-1000.000,0.000
1729906322.315,-1000.000,-183.105,-128.906,-151.855,0.000
1729906322.319,-1000.000,33.691,-57.129,945.801,0.000
1729906322.323,-1000.000,-12.695,-311.523,-397.949,0.000
1729906322.327,-1000.000,-127.441,-450.684,-1000.000,0.000
1729906322.331,-1000.000,17.578,-122.559,-679.688,0.000
1729906322.335,-1000.000,158.203,83.008,860.352,0.000
1729906322.339,-1000.000,281.250,-120.117,156.250,0.000
1729906322.343,-1000.000,213.379,-295.898,-1000.000,0.000
1729906322.347,-1000.000,99.121,-152.832,-1000.000,0.000
1729906322.351,-1000.000,128.418,9.766,227.051,0.000
1729906322.354,-1000.000,209.961,-174.316,312.500,0.000
1729906322.358,-1000.000,207.031,-371.582,-1000.000,0.000
1729906322.362,-1000.000,106.445,-327.148,-1000.000,0.000
1729906322.366,-1000.000,122.559,-123.047,-69.824,0.000
1729906322.370,-1000.000,334.961,-143.555,601.562,0.000
1729906322.374,-1000.000,464.844,-334.473,-851.074,0.000
1729906322.378,-979.492,405.273,-282.227,-1000.000,0.000
1729906322.382,-1000.000,268.066,-34.180,-243.652,0.000
1729906322.386,-1000.000,197.266,-166.016,-924.805,0.000
1729906322.390,-203.125,541.016,-385.254,-95.703,0.000
1729906322.394,-402.344,545.898,-375.488,-1000.000,0.000
1729906322.397,-1000.000,269.531,-185.547,-687.012,0.000
1729906322.401,-1000.000,239.258,-88.867,895.508,0.000
1729906322.405,-116.211,568.848,-311.035,279.297,0.000
1729906322.409,50.293,706.543,-364.258,-1000.000,0.000
1729906322.413,-1000.000,208.984,-279.785,-1000.000,0.000
1729906322.417,-1000.000,130.371,-179.199,241.699,0.000
1729906322.421,-385.254,468.750,-222.656,402.344,0.000
1729906322.425,68.359,535.156,-389.648,-1000.000,0.000
1729906322.429,-982.910,340.820,-303.711,-1000.000,0.000
1729906322.433,-1000.000,323.242,-35.645,-86.914,0.000
1729906322.437,-791.992,454.590,-88.867,707.031,0.000
1729906322.440,-151.855,631.836,-310.547,-727.051,0.000
1729906322.444,-807.129,408.691,-360.352,-1000.000,0.000
1729906322.448,-1000.000,199.707,-156.738,-439.941,0.000
1729906322.452,-1000.000,269.531,-82.031,993.652,0.000
1729906322.456,-221.191,560.547,-268.066,-95.215,0.000
1729906322.460,-318.359,564.941,-342.773,-1000.000,0.000
1729906322.464,-1000.000,304.199,-151.367,-1000.000,0.000
1729906322.468,-1000.000,333.008,22.949,380.371,0.000
1729906322.472,-107.422,639.160,-202.637,322.266,0.000
1729906322.476,33.691,595.703,-418.457,-1000.000,0.000
1729906322.479,-1000.000,209.961,-287.598,-1000.000,0.000
1729906322.483,-1000.000,222.168,-57.617,-54.199,0.000
1729906322.487,-417.480,504.883,-136.719,238.281,0.000
1729906322.491,155.762,668.945,-278.809,-1000.000,0.000
1729906322.495,-961.426,312.988,-285.156,-1000.000,0.000
1729906322.499,-1000.000,193.848,-74.219,-366.699,0.000
1729906322.503,-955.566,267.090,-113.281,354.004,0.000
1729906322.507,-238.281,406.738,-381.348,-894.531,0.000
1729906322.511,-580.078,457.031,-316.406,-1000.000,0.000
1729906322.515,-1000.000,293.945,-91.309,-966.309,0.000
1729906322.519,-1000.000,349.609,-45.898,-107.422,0.000
1729906322.522,-227.051,608.398,-222.168,-508.301,0.000
1729906322.526,-171.387,567.383,-323.730,-1000.000,0.000
1729906322.530,-1000.000,326.172,-166.992,-1000.000,0.000
1729906322.534,-1000.000,265.625,-16.113,-175.781,0.000
1729906322.538,-75.684,651.855,-148.438,-45.898,0.000
1729906322.542,201.660,794.434,-321.289,-1000.000,0.000
1729906322.546,-1000.000,311.523,-265.625,-1000.000,0.000
1729906322.550,-1000.000,160.645,-110.840,-188.965,0.000
1729906322.554,-222.168,525.879,-205.078,155.762,0.000
1729906322.558,521.484,958.984,-179.688,-1000.000,0.000
1729906322.561,-820.312,449.707,-239.258,-1000.000,0.000
1729906322.565,-1000.000,-73.730,-271.484,-896.484,0.000
1729906322.569,-536.133,310.547,-279.785,-583.496,0.000
1729906322.573,990.234,996.094,1.465,-907.227,0.000
1729906322.577,198.242,685.547,67.871,-1000.000,0.000
1729906322.581,-1000.000,-134.766,-194.824,-994.141,0.000
1729906322.585,-583.496,40.039,-216.309,-636.230,0.000
1729906322.589,-975.098,908.691,123.047,-807.617,0.000
1729906322.593,506.348,902.832,283.203,-1000.000,0.000
1729906322.597,-1000.000,-500.977,-305.176,-1000.000,0.000
1729906322.601,-862.793,-963.867,-505.859,-230.469,0.000
1729906322.604,630.371,428.223,4.395,-40.527,0.000
1729906322.608,-892.090,-794.922,489.258,-1000.000,0.000
1729906322.612,-304.688,85.938,-9.766,-1000.000,0.000
1729906322.616,-1000.000,-1000.000,-501.953,-468.262,0.000
1729906322.620,15.137,-161.133,-196.777,43.457,0.000
1729906322.624,-785.156,-787.598,451.660,-945.801,0.000
1729906322.628,99.609,250.977,121.094,-1000.000,0.000
1729906322.632,-1000.000,-1000.000,-503.906,-790.527,0.000
1729906322.636,-250.000,-416.992,-450.195,54.199,0.000
1729906322.640,-814.941,-860.840,210.449,-693.848,0.000
1729906322.643,214.844,341.309,173.828,-1000.000,0.000
1729906322.647,-1000.000,-1000.000,-455.566,-1000.000,0.000
1729906322.651,-961.914,-1000.000,-578.125,-7.812,0.000
1729906322.655,616.211,334.961,-184.082,-44.922,0.000
1729906322.659,298.340,583.496,144.043,-1000.000,0.000
1729906322.663,-1000.000,-891.602,-335.938,-1000.000,0.000
1729906322.667,-1000.000,-1000.000,-539.551,-119.629,0.000
1729906322.671,-53.711,-140.625,-359.863,171.387,0.000
1729906322.675,280.273,605.957,-128.418,-1000.000,0.000
1729906322.679,-1000.000,-789.062,-336.426,-1000.000,0.000
1729906322.683,-1000.000,-1000.000,-437.012,-970.703,0.000
1729906322.686,-690.430,-867.676,-449.219,-1000.000,0.000
1729906322.690,-225.586,-352.539,-402.344,-1000.000,0.000
1729906322.694,-953.613,-743.164,-430.664,-1000.000,0.000
1729906322.698,-1000.000,-1000.000,-343.750,-1000.000,0.000
1729906322.702,-958.984,-984.863,-254.395,-999.512,0.000
1729906322.706,-1000.000,-854.492,-412.598,-1000.000,0.000
1729906322.710,-995.605,-851.074,-455.078,-999.023,0.000
1729906322.714,-1000.000,-1000.000,-351.562,-986.816,0.000
1729906322.718,-1000.000,-999.512,-199.219,-989.746,0.000
1729906322.722,-833.496,-555.176,-294.922,-1000.000,0.000
1729906322.726,-905.762,-360.840,-442.383,-935.547,0.000
1729906322.729,-957.520,-740.234,-358.398,-1000.000,0.000
1729906322.733,-1000.000,-824.219,-198.242,-338.379,0.000
1729906322.737,-356.934,-311.523,-293.457,201.660,0.000
1729906322.741,131.348,244.141,-389.648,-743.652,0.000
1729906322.745,-979.492,-397.461,-454.102,-1000.000,0.000
1729906322.749,-1000.000,-607.910,-282.227,-408.691,0.000
1729906322.753,-755.371,-219.727,-177.246,410.645,0.000
1729906322.757,-64.453,448.242,-274.414,-694.824,0.000
1729906322.761,-815.918,248.535,-298.340,-1000.000,0.000
1729906322.765,-1000.000,-278.809,-130.371,-932.617,0.000
1729906322.768,-1000.000,-245.117,-56.152,392.090,0.000
1729906322.772,-117.188,408.691,-276.855,-62.988,0.000
1729906322.776,-252.930,489.746,-376.465,-1000.000,0.000
1729906322.780,-1000.000,-213.379,-249.023,-1000.000,0.000
1729906322.784,-1000.000,-206.055,-104.980,149.414,0.000
1729906322.788,-83.984,437.012,-165.039,307.617,0.000
1729906322.792,238.770,722.656,-221.680,-1000.000,0.000
1729906322.796,-1000.000,47.852,-254.883,-1000.000,0.000
1729906322.800,-1000.000,-202.148,-112.793,-59.570,0.000
1729906322.804,-270.508,142.578,-281.250,520.020,0.000
1729906322.808,324.219,751.465,-418.457,-906.250,0.000
1729906322.811,-912.598,257.812,-339.355,-1000.000,0.000
1729906322.815,-1000.000,-188.965,-200.684,-186.523,0.000
1729906322.819,-738.281,35.156,-165.039,-902.344,0.000
1729906322.823,602.539,770.996,-147.461,-123.535,0.000
1729906322.827,-244.141,499.023,-228.516,-1000.000,0.000
1729906322.831,-1000.000,-293.945,-250.000,-396.973,0.000
1729906322.835,-1000.000,-394.531,-300.293,-903.320,0.000
1729906322.839,187.500,431.641,-265.137,257.812,0.000
1729906322.843,271.484,701.660,-119.629,-1000.000,0.000
1729906322.847,-1000.000,-177.246,-198.242,-881.348,0.000
1729906322.851,-1000.000,-336.914,-119.629,740.234,0.000
1729906322.854,-56.641,377.441,-148.438,425.293,0.000
1729906322.858,242.188,753.418,-137.695,-1000.000,0.000
1729906322.862,-1000.000,-69.336,-203.125,-1000.000,0.000
1729906322.866,-1000.000,-304.688,-83.496,-77.637,0.000
1729906322.870,-755.371,-101.074,-149.414,588.867,0.000
1729906322.874,-379.395,81.055,-379.883,-791.016,0.000
1729906322.878,-962.402,-47.852,-336.426,-1000.000,0.000
1729906322.882,-1000.000,-134.766,-101.562,-292.969,0.000
1729906322.886,-966.797,4.395,-79.590,969.727,0.000
1729906322.890,-1000.000,60.059,-279.297,-298.340,0.000
1729906322.893,-1000.000,-30.762,-378.418,-1000.000,0.000
1729906322.897,-1000.000,-44.434,-193.359,-1000.000,0.000
1729906322.901,-1000.000,113.281,0.000,366.211,0.000
1729906322.905,-1000.000,225.098,-187.500,110.840,0.000
1729906322.909,-1000.000,214.355,-292.969,-1000.000,0.000
1729906322.913,-1000.000,118.652,-109.863,-1000.000,0.000
1729906322.917,-1000.000,104.492,54.199,-72.754,0.000
1729906322.921,-1000.000,221.191,-68.848,205.078,0.000
1729906322.925,-1000.000,58.594,-366.211,-1000.000,0.000
1729906322.929,-1000.000,-97.168,-376.465,-1000.000,0.000
1729906322.933,-1000.000,141.113,14.648,-729.004,0.000
1729906322.936,-1000.000,351.562,41.992,-303.711,0.000
1729906322.940,-1000.000,398.438,-215.820,-937.012,0.000
1729906322.944,-1000.000,264.648,-237.305,-1000.000,0.000
1729906322.948,-1000.000,159.180,-40.527,-953.125,0.000
1729906322.952,-1000.000,246.582,-29.297,-600.098,0.000
1729906322.956,-1000.000,384.277,-270.020,-856.934,0.000
1729906322.960,-991.699,357.910,-292.969,-1000.000,0.000
1729906322.964,-990.234,202.148,-153.320,-1000.000,0.000
1729906322.968,-1000.000,247.559,-105.957,-77.637,0.000
1729906322.972,-591.797,452.148,-229.492,92.773,0.000
1729906322.975,-491.211,448.242,-399.902,-1000.000,0.000
1729906322.979,-726.074,336.914,-254.883,-1000.000,0.000
1729906322.983,-1000.000,133.789,-136.230,-33.691,0.000
1729906322.987,-147.949,449.707,-295.410,482.422,0.000
1729906322.991,556.641,946.289,-195.312,-941.406,0.000
1729906322.995,-888.672,456.543,-198.730,-1000.000,0.000
1729906322.999,-1000.000,106.445,-167.969,-206.543,0.000
1729906323.003,-194.824,454.590,-228.027,-850.098,0.000
1729906323.007,-876.953,-959.961,77.148,58.594,0.000
1729906323.011,210.938,626.953,116.211,-1000.000,0.000
1729906323.015,-1000.000,-553.711,-340.332,-245.117,0.000
1729906323.018,-350.098,-169.922,-409.668,-808.105,0.000
1729906323.022,-846.191,-992.676,126.465,375.977,0.000
1729906323.026,459.961,919.922,379.395,-1000.000,0.000
1729906323.030,-1000.000,-487.793,-179.199,-279.297,0.000
1729906323.034,-677.246,-929.199,-434.082,-874.512,0.000
1729906323.038,908.203,553.223,66.895,836.426,0.000
1729906323.042,956.543,-816.895,466.309,-756.836,0.000
1729906323.046,-509.277,-19.043,-72.754,-758.301,0.000
1729906323.050,-1000.000,-1000.000,-515.137,854.492,0.000
1729906323.054,113.281,-98.145,-204.590,-891.602,0.000
1729906323.057,-789.551,-780.273,433.105,-189.941,0.000
1729906323.061,20.020,208.008,68.848,-1000.000,0.000
1729906323.065,-1000.000,-1000.000,-565.918,-60.547,0.000
1729906323.069,-242.188,-291.992,-398.438,-798.828,0.000
1729906323.073,-817.871,-824.219,332.031,92.773,0.000
1729906323.077,241.211,443.359,206.543,-1000.000,0.000
1729906323.081,-1000.000,-1000.000,-457.520,-321.777,0.000
1729906323.085,-458.984,-658.203,-553.711,-841.797,0.000
1729906323.089,-885.742,906.250,97.168,226.074,0.000
1729906323.093,491.211,894.043,406.738,-1000.000,0.000
1729906323.097,-1000.000,-595.215,-269.043,-979.492,0.000
1729906323.100,-914.062,-1000.000,-637.695,595.215,0.000
1729906323.104,579.102,252.441,-124.023,382.324,0.000
1729906323.108,-895.996,-789.551,461.426,-1000.000,0.000
1729906323.112,-337.402,54.199,-56.152,-1000.000,0.000
1729906323.116,-1000.000,-1000.000,-665.527,-53.711,0.000
1729906323.120,43.457,-147.461,-271.484,752.441,0.000
1729906323.124,-772.461,-784.180,470.703,-722.656,0.000
1729906323.128,200.684,332.520,184.570,-1000.000,0.000
1729906323.132,-1000.000,-1000.000,-583.008,-190.430,0.000
1729906323.136,-273.438,-288.574,-483.398,-879.883,0.000
1729906323.140,-802.246,-877.441,370.605,2.930,0.000
1729906323.143,378.418,805.176,423.340,-1000.000,0.000
1729906322.577,198.242,685.547,67.871,-1000.000,0.000
1729906322.581,-1000.000,-134.766,-194.824,-994.141,0.000
1729906322.585,-583.496,40.039,-216.309,-636.230,0.000
1729906322.589,-975.098,908.691,123.047,-807.617,0.000
1729906322.593,506.348,902.832,283.203,-1000.000,0.000
1729906322.597,-1000.000,-500.977,-305.176,-1000.000,0.000
1729906322.601,-862.793,-963.867,-505.859,-230.469,0.000
1729906322.604,630.371,428.223,4.395,-40.527,0.000
1729906322.608,-892.090,-794.922,489.258,-1000.000,0.000
1729906322.612,-304.688,85.938,-9.766,-1000.000,0.000
1729906322.616,-1000.000,-1000.000,-501.953,-468.262,0.000
1729906322.620,15.137,-161.133,-196.777,43.457,0.000
1729906322.624,-785.156,-787.598,451.660,-945.801,0.000
1729906322.628,99.609,250.977,121.094,-1000.000,0.000
1729906322.632,-1000.000,-1000.000,-503.906,-790.527,0.000
1729906322.636,-250.000,-416.992,-450.195,54.199,0.000
1729906322.640,-814.941,-860.840,210.449,-693.848,0.000
1729906322.643,214.844,341.309,173.828,-1000.000,0.000
1729906322.647,-1000.000,-1000.000,-455.566,-1000.000,0.000
1729906322.651,-961.914,-1000.000,-578.125,-7.812,0.000
1729906322.655,616.211,334.961,-184.082,-44.922,0.000
1729906322.659,298.340,583.496,144.043,-1000.000,0.000
1729906322.663,-1000.000,-891.602,-335.938,-1000.000,0.000
1729906322.667,-1000.000,-1000.000,-539.551,-119.629,0.000
1729906322.671,-53.711,-140.625,-359.863,171.387,0.000
1729906322.675,280.273,605.957,-128.418,-1000.000,0.000
1729906322.679,-1000.000,-789.062,-336.426,-1000.000,0.000
1729906322.683,-1000.000,-1000.000,-437.012,-970.703,0.000
1729906322.686,-690.430,-867.676,-449.219,-1000.000,0.000
1729906322.690,-225.586,-352.539,-402.344,-1000.000,0.000
1729906322.694,-953.613,-743.164,-430.664,-1000.000,0.000
1729906322.698,-1000.000,-1000.000,-343.750,-1000.000,0.000
1729906322.702,-958.984,-984.863,-254.395,-999.512,0.000
1729906322.706,-1000.000,-854.492,-412.598,-1000.000,0.000
1729906322.710,-995.605,-851.074,-455.078,-999.023,0.000
1729906322.714,-1000.000,-1000.000,-351.562,-986.816,0.000
1729906322.718,-1000.000,-999.512,-199.219,-989.746,0.000
1729906322.722,-833.496,-555.176,-294.922,-1000.000,0.000
1729906322.726,-905.762,-360.840,-442.383,-935.547,0.000
1729906322.729,-957.520,-740.234,-358.398,-1000.000,0.000
1729906322.733,-1000.000,-824.219,-198.242,-338.379,0.000
1729906322.737,-356.934,-311.523,-293.457,201.660,0.000
1729906322.741,131.348,244.141,-389.648,-743.652,0.000
1729906322.745,-979.492,-397.461,-454.102,-1000.000,0.000
1729906322.749,-1000.000,-607.910,-282.227,-408.691,0.000
1729906322.753,-755.371,-219.727,-177.246,410.645,0.000
1729906322.757,-64.453,448.242,-274.414,-694.824,0.000
1729906322.761,-815.918,248.535,-298.340,-1000.000,0.000
1729906322.765,-1000.000,-278.809,-130.371,-932.617,0.000
1729906322.768,-1000.000,-245.117,-56.152,392.090,0.000
1729906322.772,-117.188,408.691,-276.855,-62.988,0.000
1729906322.776,-252.930,489.746,-376.465,-1000.000,0.000
1729906322.780,-1000.000,-213.379,-249.023,-1000.000,0.000
1729906322.784,-1000.000,-206.055,-104.980,149.414,0.000
1729906322.788,-83.984,437.012,-165.039,307.617,0.000
1729906322.792,238.770,722.656,-221.680,-1000.000,0.000
1729906322.796,-1000.000,47.852,-254.883,-1000.000,0.000
1729906322.800,-1000.000,-202.148,-112.793,-59.570,0.000
1729906322.804,-270.508,142.578,-281.250,520.020,0.000
1729906322.808,324.219,751.465,-418.457,-906.250,0.000
1729906322.811,-912.598,257.812,-339.355,-1000.000,0.000
1729906322.815,-1000.000,-188.965,-200.684,-186.523,0.000
1729906322.819,-738.281,35.156,-165.039,-902.344,0.000
1729906322.823,602.539,770.996,-147.461,-123.535,0.000
1729906322.827,-244.141,499.023,-228.516,-1000.000,0.000
1729906322.831,-1000.000,-293.945,-250.000,-396.973,0.000
1729906322.835,-1000.000,-394.531,-300.293,-903.320,0.000
1729906322.839,187.500,431.641,-265.137,257.812,0.000
1729906322.843,271.484,701.660,-119.629,-1000.000,0.000
1729906322.847,-1000.000,-177.246,-198.242,-881.348,0.000
1729906322.851,-1000.000,-336.914,-119.629,740.234,0.000
1729906322.854,-56.641,377.441,-148.438,425.293,0.000
1729906322.858,242.188,753.418,-137.695,-1000.000,0.000
1729906322.862,-1000.000,-69.336,-203.125,-1000.000,0.000
1729906322.866,-1000.000,-304.688,-83.496,-77.637,0.000
1729906322.870,-755.371,-101.074,-149.414,588.867,0.000
1729906322.874,-379.395,81.055,-379.883,-791.016,0.000
1729906322.878,-962.402,-47.852,-336.426,-1000.000,0.000
1729906322.882,-1000.000,-134.766,-101.562,-292.969,0.000
1729906322.886,-966.797,4.395,-79.590,969.727,0.000
1729906322.890,-1000.000,60.059,-279.297,-298.340,0.000
1729906322.893,-1000.000,-30.762,-378.418,-1000.000,0.000
1729906322.897,-1000.000,-44.434,-193.359,-1000.000,0.000
1729906322.901,-1000.000,113.281,0.000,366.211,0.000
1729906322.905,-1000.000,225.098,-187.500,110.840,0.000
1729906322.909,-1000.000,214.355,-292.969,-1000.000,0.000
1729906322.913,-1000.000,118.652,-109.863,-1000.000,0.000
1729906322.917,-1000.000,104.492,54.199,-72.754,0.000
1729906322.921,-1000.000,221.191,-68.848,205.078,0.000
1729906322.925,-1000.000,58.594,-366.211,-1000.000,0.000
1729906322.929,-1000.000,-97.168,-376.465,-1000.000,0.000
1729906322.933,-1000.000,141.113,14.648,-729.004,0.000
1729906322.936,-1000.000,351.562,41.992,-303.711,0.000
1729906322.940,-1000.000,398.438,-215.820,-937.012,0.000
1729906322.944,-1000.000,264.648,-237.305,-1000.000,0.000
1729906322.948,-1000.000,159.180,-40.527,-953.125,0.000
1729906322.952,-1000.000,246.582,-29.297,-600.098,0.000
1729906322.956,-1000.000,384.277,-270.020,-856.934,0.000
1729906322.960,-991.699,357.910,-292.969,-1000.000,0.000
1729906322.964,-990.234,202.148,-153.320,-1000.000,0.000
1729906322.968,-1000.000,247.559,-105.957,-77.637,0.000
1729906322.972,-591.797,452.148,-229.492,92.773,0.000
1729906322.975,-491.211,448.242,-399.902,-1000.000,0.000
1729906322.979,-726.074,336.914,-254.883,-1000.000,0.000
1729906322.983,-1000.000,133.789,-136.230,-33.691,0.000
1729906322.987,-147.949,449.707,-295.410,482.422,0.000
1729906322.991,556.641,946.289,-195.312,-941.406,0.000
1729906322.995,-888.672,456.543,-198.730,-1000.000,0.000
1729906322.999,-1000.000,106.445,-167.969,-206.543,0.000
1729906323.003,-194.824,454.590,-228.027,-850.098,0.000
1729906323.007,-876.953,-959.961,77.148,58.594,0.000
1729906323.011,210.938,626.953,116.211,-1000.000,0.000
1729906323.015,-1000.000,-553.711,-340.332,-245.117,0.000
1729906323.018,-350.098,-169.922,-409.668,-808.105,0.000
1729906323.022,-846.191,-992.676,126.465,375.977,0.000
1729906323.026,459.961,919.922,379.395,-1000.000,0.000
1729906323.030,-1000.000,-487.793,-179.199,-279.297,0.000
1729906323.034,-677.246,-929.199,-434.082,-874.512,0.000
1729906323.038,908.203,553.223,66.895,836.426,0.000
1729906323.042,956.543,-816.895,466.309,-756.836,0.000
1729906323.046,-509.277,-19.043,-72.754,-758.301,0.000
1729906323.050,-1000.000,-1000.000,-515.137,854.492,0.000
1729906323.054,113.281,-98.145,-204.590,-891.602,0.000
1729906323.057,-789.551,-780.273,433.105,-189.941,0.000
1729906323.061,20.020,208.008,68.848,-1000.000,0.000
1729906323.065,-1000.000,-1000.000,-565.918,-60.547,0.000
1729906323.069,-242.188,-291.992,-398.438,-798.828,0.000
1729906323.073,-817.871,-824.219,332.031,92.773,0.000
1729906323.077,241.211,443.359,206.543,-1000.000,0.000
1729906323.081,-1000.000,-1000.000,-457.520,-321.777,0.000
1729906323.085,-458.984,-658.203,-553.711,-841.797,0.000
1729906323.089,-885.742,906.250,97.168,226.074,0.000
1729906323.093,491.211,894.043,406.738,-1000.000,0.000
1729906323.097,-1000.000,-595.215,-269.043,-979.492,0.000
1729906323.100,-914.062,-1000.000,-637.695,595.215,0.000
1729906323.104,579.102,252.441,-124.023,382.324,0.000
1729906323.108,-895.996,-789.551,461.426,-1000.000,0.000
1729906323.112,-337.402,54.199,-56.152,-1000.000,0.000
1729906323.116,-1000.000,-1000.000,-665.527,-53.711,0.000
1729906323.120,43.457,-147.461,-271.484,752.441,0.000
1729906323.124,-772.461,-784.180,470.703,-722.656,0.000
1729906323.128,200.684,332.520,184.570,-1000.000,0.000
1729906323.132,-1000.000,-1000.000,-583.008,-190.430,0.000
1729906323.136,-273.438,-288.574,-483.398,-879.883,0.000
1729906323.140,-802.246,-877.441,370.605,2.930,0.000
1729906323.143,378.418,805.176,423.340,-1000.000,0.000
1729906323.147,-1000.000,-766.113,-360.840,-542.480,0.000
1729906323.151,-416.016,-630.371,-624.023,-962.402,0.000
1729906323.155,-900.879,921.387,143.555,265.625,0.000
1729906323.159,768.066,-921.875,519.531,-1000.000,0.000
1729906323.163,-782.715,-211.426,-239.746,-1000.000,0.000
1729906323.167,-1000.000,-1000.000,-744.629,493.164,0.000
1729906323.171,512.695,208.008,-101.562,591.797,0.000
1729906323.175,-846.680,-771.484,542.969,-962.402,0.000
1729906323.179,-187.500,111.328,-46.875,-1000.000,0.000
1729906323.182,-1000.000,-1000.000,-774.902,-58.105,0.000
1729906323.186,-169.922,-239.746,-406.250,-871.582,0.000
1729906323.190,-807.129,-803.711,433.105,-254.395,0.000
1729906323.194,226.074,272.461,72.754,-1000.000,0.000
1729906323.198,-1000.000,-1000.000,-724.609,-34.668,0.000
1729906323.202,-267.090,-428.711,-591.797,-851.074,0.000
1729906323.206,-808.105,-919.434,195.312,241.699,0.000
1729906323.210,326.172,706.543,376.953,-1000.000,0.000
1729906323.214,-1000.000,-865.723,-422.852,-440.918,0.000
1729906323.218,-613.281,-874.512,-715.332,-870.605,0.000
1729906323.222,991.211,649.414,38.086,359.863,0.000
1729906323.225,792.969,-889.160,477.539,-1000.000,0.000
1729906323.229,-752.930,-227.051,-242.676,-1000.000,0.000
1729906323.233,-1000.000,-1000.000,-752.441,496.582,0.000
1729906323.237,270.996,35.156,-232.910,658.691,0.000
1729906323.241,-846.191,-819.336,400.391,-831.055,0.000
1729906323.245,-190.430,104.492,-115.234,-1000.000,0.000
1729906323.249,-1000.000,-1000.000,-754.883,-131.348,0.000
1729906323.253,-200.195,-432.617,-643.555,940.918,0.000
1729906323.257,-858.887,-893.066,53.223,-404.785,0.000
1729906323.261,-4.883,199.707,-8.301,-1000.000,0.000
1729906323.265,-1000.000,-1000.000,-666.504,-568.848,0.000
1729906323.268,-919.922,-1000.000,-656.738,933.594,0.000
1729906323.272,614.746,337.891,-151.855,-18.555,0.000
1729906323.276,294.922,340.332,-24.414,-1000.000,0.000
1729906323.280,-1000.000,-1000.000,-559.082,-1000.000,0.000
1729906323.284,-1000.000,-1000.000,-678.711,186.523,0.000
1729906323.288,4.395,-59.570,-363.770,311.523,0.000
1729906323.292,317.383,586.914,-21.973,-1000.000,0.000
1729906323.296,-1000.000,-823.730,-414.062,-1000.000,0.000
1729906323.300,-1000.000,-1000.000,-645.020,-56.641,0.000
1729906323.304,-154.785,-305.664,-490.234,476.074,0.000
1729906323.307,965.820,-941.406,57.129,-927.246,0.000
1729906323.311,-410.156,0.000,-179.199,-1000.000,0.000
1729906323.315,-1000.000,-1000.000,-663.574,-175.781,0.000
1729906323.319,-242.676,-491.699,-541.992,-940.430,0.000
1729906323.323,-856.934,-953.613,97.656,-207.031,0.000
1729906323.327,251.953,335.449,131.836,-1000.000,0.000
1729906323.331,-1000.000,-1000.000,-494.629,-512.207,0.000
1729906323.335,-593.750,-860.840,-567.871,-965.820,0.000
1729906323.339,-950.195,698.242,32.227,262.695,0.000
1729906323.343,438.477,735.352,289.062,-1000.000,0.000
1729906323.347,-1000.000,-798.828,-378.906,-1000.000,0.000
1729906323.350,-1000.000,-1000.000,-645.996,483.887,0.000
1729906323.354,326.172,22.461,-205.078,390.137,0.000
1729906323.358,915.527,-891.602,325.195,-1000.000,0.000
1729906323.362,-622.559,-174.316,-183.105,-1000.000,0.000
1729906323.366,-1000.000,-1000.000,-654.297,-75.684,0.000
1729906323.370,-191.895,-256.348,-388.184,703.125,0.000
1729906323.374,-868.652,-845.703,257.812,-750.977,0.000
1729906323.378,-38.086,181.152,-2.441,-1000.000,0.000
1729906323.382,-1000.000,-1000.000,-566.406,-251.953,0.000
1729906323.386,-293.945,-590.820,-562.500,-933.105,0.000
1729906323.389,-897.461,953.125,33.203,-120.605,0.000
1729906323.393,253.418,359.375,104.492,-1000.000,0.000
1729906323.397,-1000.000,-1000.000,-507.324,-826.660,0.000
1729906323.401,-875.488,-1000.000,-601.074,720.703,0.000
1729906323.405,747.070,326.660,-200.195,286.133,0.000
1729906323.409,487.793,812.500,194.824,-1000.000,0.000
1729906323.413,-1000.000,-709.473,-312.500,-1000.000,0.000
1729906323.417,-1000.000,-1000.000,-667.969,71.777,0.000
1729906323.421,78.125,-116.699,-295.898,283.691,0.000
1729906323.425,980.469,-880.859,276.855,-1000.000,0.000
1729906323.429,-487.793,-63.965,-143.555,-1000.000,0.000
1729906323.432,-1000.000,-1000.000,-619.141,-77.637,0.000
1729906323.436,-201.660,-318.359,-481.445,649.414,0.000
1729906323.440,-856.445,-863.281,162.109,-793.945,0.000
1729906323.444,108.398,237.305,47.363,-1000.000,0.000
1729906323.448,-1000.000,-1000.000,-545.898,-460.449,0.000
1729906323.452,-479.004,-721.191,-560.547,998.535,0.000
1729906323.456,-914.551,886.719,29.785,-8.301,0.000
1729906323.460,255.371,457.520,185.547,-1000.000,0.000
1729906323.464,-1000.000,-1000.000,-473.145,-884.766,0.000
1729906323.468,-982.910,-1000.000,-639.160,645.996,0.000
1729906323.472,581.543,214.844,-159.180,315.918,0.000
1729906323.475,606.445,929.199,258.301,-1000.000,0.000
1729906323.479,-947.266,-541.992,-267.578,-1000.000,0.000
1729906323.483,-1000.000,-1000.000,-632.324,210.449,0.000
1729906323.487,-49.316,-168.945,-326.660,655.273,0.000
1729906323.491,-910.156,-858.398,266.113,-894.531,0.000
1729906323.495,-258.301,51.758,-111.328,-1000.000,0.000
1729906323.499,-1000.000,-1000.000,-606.934,-190.430,0.000
1729906323.503,-214.844,-356.445,-435.547,-888.672,0.000
1729906323.507,-838.867,-866.699,207.520,-102.539,0.000
1729906323.511,246.094,273.926,111.328,-1000.000,0.000
1729906323.514,-1000.000,-1000.000,-511.230,-241.211,0.000
1729906323.518,-542.480,-799.805,-553.223,-841.797,0.000
1729906323.522,-922.363,796.875,36.621,243.652,0.000
1729906323.526,294.922,583.008,149.414,-1000.000,0.000
1729906323.530,-1000.000,-932.617,-456.543,-725.586,0.000
1729906323.534,-1000.000,-1000.000,-609.863,933.594,0.000
1729906323.538,423.828,107.422,-176.758,374.023,0.000
1729906323.542,732.910,-982.422,300.781,-1000.000,0.000
1729906323.546,-837.891,-374.512,-209.961,-1000.000,0.000
1729906323.550,-1000.000,-1000.000,-602.051,160.645,0.000
1729906323.554,-171.387,-225.586,-420.410,761.719,0.000
1729906323.557,-928.711,-861.328,199.707,-779.785,0.000
1729906323.561,-193.848,117.188,-37.598,-1000.000,0.000
1729906323.565,-1000.000,-1000.000,-590.332,-178.711,0.000
1729906323.569,-330.566,-582.031,-527.832,-909.668,0.000
1729906323.573,-885.254,994.629,49.316,-122.070,0.000
1729906323.577,185.547,264.648,37.598,-1000.000,0.000
1729906323.581,-1000.000,-1000.000,-529.297,-565.430,0.000
1729906323.585,-916.504,-1000.000,-613.281,-989.746,0.000
1729906323.589,662.109,337.891,-166.992,243.164,0.000
1729906323.593,301.270,553.711,147.461,-1000.000,0.000
1729906323.596,-1000.000,-932.617,-356.934,-1000.000,0.000
1729906323.600,-1000.000,-1000.000,-583.984,294.922,0.000
1729906323.604,52.734,-105.957,-300.781,315.918,0.000
1729906323.608,623.535,949.707,183.594,-1000.000,0.000
1729906323.612,-903.320,-417.480,-214.844,-1000.000,0.000
1729906323.616,-1000.000,-1000.000,-572.754,-109.863,0.000
1729906323.620,-100.098,-227.051,-416.504,725.586,0.000
1729906323.624,-906.250,-902.344,104.980,-717.773,0.000
1729906323.628,-97.168,178.711,-22.949,-1000.000,0.000
1729906323.632,-1000.000,-1000.000,-521.484,-197.754,0.000
1729906323.636,-373.047,-627.441,-534.180,-867.188,0.000
1729906323.639,-891.602,963.379,61.523,70.801,0.000
1729906323.643,259.277,366.699,83.008,-1000.000,0.000
1729906323.647,-1000.000,-1000.000,-528.320,-504.883,0.000
1729906323.651,-818.848,-1000.000,-557.617,-932.129,0.000
1729906323.655,819.336,425.293,-56.152,259.766,0.000
1729906323.659,519.531,854.980,299.805,-1000.000,0.000
1729906323.663,-987.305,-651.367,-259.277,-998.535,0.000
1729906323.667,-1000.000,-1000.000,-589.355,549.316,0.000
1729906323.671,103.516,-115.234,-301.270,562.012,0.000
1729906323.675,947.754,-886.719,190.430,-952.148,0.000
1729906323.678,-537.109,-74.219,-192.871,-1000.000,0.000
1729906323.682,-1000.000,-1000.000,-567.383,-131.836,0.000
1729906323.686,-197.266,-334.473,-422.363,923.828,0.000
1729906323.690,-864.746,-872.559,179.199,-458.008,0.000
1729906323.694,60.059,227.539,41.016,-1000.000,0.000
1729906323.698,-1000.000,-1000.000,-515.137,-290.039,0.000
1729906323.702,-485.840,-766.113,-546.875,-886.230,0.000
1729906323.706,-927.734,830.078,4.883,123.047,0.000
1729906323.710,273.438,524.902,195.312,-1000.000,0.000
1729906323.714,-1000.000,-1000.000,-422.363,-639.160,0.000
1729906323.147,-1000.000,-766.113,-360.840,-542.480,0.000
1729906323.151,-416.016,-630.371,-624.023,-962.402,0.000
1729906323.155,-900.879,921.387,143.555,265.625,0.000
1729906323.159,768.066,-921.875,519.531,-1000.000,0.000
1729906323.163,-782.715,-211.426,-239.746,-1000.000,0.000
1729906323.167,-1000.000,-1000.000,-744.629,493.164,0.000
1729906323.171,512.695,208.008,-101.562,591.797,0.000
1729906323.175,-846.680,-771.484,542.969,-962.402,0.000
1729906323.179,-187.500,111.328,-46.875,-1000.000,0.000
1729906323.182,-1000.000,-1000.000,-774.902,-58.105,0.000
1729906323.186,-169.922,-239.746,-406.250,-871.582,0.000
1729906323.190,-807.129,-803.711,433.105,-254.395,0.000
1729906323.194,226.074,272.461,72.754,-1000.000,0.000
1729906323.198,-1000.000,-1000.000,-724.609,-34.668,0.000
1729906323.202,-267.090,-428.711,-591.797,-851.074,0.000
1729906323.206,-808.105,-919.434,195.312,241.699,0.000
1729906323.210,326.172,706.543,376.953,-1000.000,0.000
1729906323.214,-1000.000,-865.723,-422.852,-440.918,0.000
1729906323.218,-613.281,-874.512,-715.332,-870.605,0.000
1729906323.222,991.211,649.414,38.086,359.863,0.000
1729906323.225,792.969,-889.160,477.539,-1000.000,0.000
1729906323.229,-752.930,-227.051,-242.676,-1000.000,0.000
1729906323.233,-1000.000,-1000.000,-752.441,496.582,0.000
1729906323.237,270.996,35.156,-232.910,658.691,0.000
1729906323.241,-846.191,-819.336,400.391,-831.055,0.000
1729906323.245,-190.430,104.492,-115.234,-1000.000,0.000
1729906323.249,-1000.000,-1000.000,-754.883,-131.348,0.000
1729906323.253,-200.195,-432.617,-643.555,940.918,0.000
1729906323.257,-858.887,-893.066,53.223,-404.785,0.000
1729906323.261,-4.883,199.707,-8.301,-1000.000,0.000
1729906323.265,-1000.000,-1000.000,-666.504,-568.848,0.000
1729906323.268,-919.922,-1000.000,-656.738,933.594,0.000
1729906323.272,614.746,337.891,-151.855,-18.555,0.000
1729906323.276,294.922,340.332,-24.414,-1000.000,0.000
1729906323.280,-1000.000,-1000.000,-559.082,-1000.000,0.000
1729906323.284,-1000.000,-1000.000,-678.711,186.523,0.000
1729906323.288,4.395,-59.570,-363.770,311.523,0.000
1729906323.292,317.383,586.914,-21.973,-1000.000,0.000
1729906323.296,-1000.000,-823.730,-414.062,-1000.000,0.000
1729906323.300,-1000.000,-1000.000,-645.020,-56.641,0.000
1729906323.304,-154.785,-305.664,-490.234,476.074,0.000
1729906323.307,965.820,-941.406,57.129,-927.246,0.000
1729906323.311,-410.156,0.000,-179.199,-1000.000,0.000
1729906323.315,-1000.000,-1000.000,-663.574,-175.781,0.000
1729906323.319,-242.676,-491.699,-541.992,-940.430,0.000
1729906323.323,-856.934,-953.613,97.656,-207.031,0.000
1729906323.327,251.953,335.449,131.836,-1000.000,0.000
1729906323.331,-1000.000,-1000.000,-494.629,-512.207,0.000
1729906323.335,-593.750,-860.840,-567.871,-965.820,0.000
1729906323.339,-950.195,698.242,32.227,262.695,0.000
1729906323.343,438.477,735.352,289.062,-1000.000,0.000
1729906323.347,-1000.000,-798.828,-378.906,-1000.000,0.000
1729906323.350,-1000.000,-1000.000,-645.996,483.887,0.000
1729906323.354,326.172,22.461,-205.078,390.137,0.000
1729906323.358,915.527,-891.602,325.195,-1000.000,0.000
1729906323.362,-622.559,-174.316,-183.105,-1000.000,0.000
1729906323.366,-1000.000,-1000.000,-654.297,-75.684,0.000
1729906323.370,-191.895,-256.348,-388.184,703.125,0.000
1729906323.374,-868.652,-845.703,257.812,-750.977,0.000
1729906323.378,-38.086,181.152,-2.441,-1000.000,0.000
1729906323.382,-1000.000,-1000.000,-566.406,-251.953,0.000
1729906323.386,-293.945,-590.820,-562.500,-933.105,0.000
1729906323.389,-897.461,953.125,33.203,-120.605,0.000
1729906323.393,253.418,359.375,104.492,-1000.000,0.000
1729906323.397,-1000.000,-1000.000,-507.324,-826.660,0.000
1729906323.401,-875.488,-1000.000,-601.074,720.703,0.000
1729906323.405,747.070,326.660,-200.195,286.133,0.000
1729906323.409,487.793,812.500,194.824,-1000.000,0.000
1729906323.413,-1000.000,-709.473,-312.500,-1000.000,0.000
1729906323.417,-1000.000,-1000.000,-667.969,71.777,0.000
1729906323.421,78.125,-116.699,-295.898,283.691,0.000
1729906323.425,980.469,-880.859,276.855,-1000.000,0.000
1729906323.429,-487.793,-63.965,-143.555,-1000.000,0.000
1729906323.432,-1000.000,-1000.000,-619.141,-77.637,0.000
1729906323.436,-201.660,-318.359,-481.445,649.414,0.000
1729906323.440,-856.445,-863.281,162.109,-793.945,0.000
1729906323.444,108.398,237.305,47.363,-1000.000,0.000
1729906323.448,-1000.000,-1000.000,-545.898,-460.449,0.000
1729906323.452,-479.004,-721.191,-560.547,998.535,0.000
1729906323.456,-914.551,886.719,29.785,-8.301,0.000
1729906323.460,255.371,457.520,185.547,-1000.000,0.000
1729906323.464,-1000.000,-1000.000,-473.145,-884.766,0.000
1729906323.468,-982.910,-1000.000,-639.160,645.996,0.000
1729906323.472,581.543,214.844,-159.180,315.918,0.000
1729906323.475,606.445,929.199,258.301,-1000.000,0.000
1729906323.479,-947.266,-541.992,-267.578,-1000.000,0.000
1729906323.483,-1000.000,-1000.000,-632.324,210.449,0.000
1729906323.487,-49.316,-168.945,-326.660,655.273,0.000
1729906323.491,-910.156,-858.398,266.113,-894.531,0.000
1729906323.495,-258.301,51.758,-111.328,-1000.000,0.000
1729906323.499,-1000.000,-1000.000,-606.934,-190.430,0.000
1729906323.503,-214.844,-356.445,-435.547,-888.672,0.000
1729906323.507,-838.867,-866.699,207.520,-102.539,0.000
1729906323.511,246.094,273.926,111.328,-1000.000,0.000
1729906323.514,-1000.000,-1000.000,-511.230,-241.211,0.000
1729906323.518,-542.480,-799.805,-553.223,-841.797,0.000
1729906323.522,-922.363,796.875,36.621,243.652,0.000
1729906323.526,294.922,583.008,149.414,-1000.000,0.000
1729906323.530,-1000.000,-932.617,-456.543,-725.586,0.000
1729906323.534,-1000.000,-1000.000,-609.863,933.594,0.000
1729906323.538,423.828,107.422,-176.758,374.023,0.000
1729906323.542,732.910,-982.422,300.781,-1000.000,0.000
1729906323.546,-837.891,-374.512,-209.961,-1000.000,0.000
1729906323.550,-1000.000,-1000.000,-602.051,160.645,0.000
1729906323.554,-171.387,-225.586,-420.410,761.719,0.000
1729906323.557,-928.711,-861.328,199.707,-779.785,0.000
1729906323.561,-193.848,117.188,-37.598,-1000.000,0.000
1729906323.565,-1000.000,-1000.000,-590.332,-178.711,0.000
1729906323.569,-330.566,-582.031,-527.832,-909.668,0.000
1729906323.573,-885.254,994.629,49.316,-122.070,0.000
1729906323.577,185.547,264.648,37.598,-1000.000,0.000
1729906323.581,-1000.000,-1000.000,-529.297,-565.430,0.000
1729906323.585,-916.504,-1000.000,-613.281,-989.746,0.000
1729906323.589,662.109,337.891,-166.992,243.164,0.000
1729906323.593,301.270,553.711,147.461,-1000.000,0.000
1729906323.596,-1000.000,-932.617,-356.934,-1000.000,0.000
1729906323.600,-1000.000,-1000.000,-583.984,294.922,0.000
1729906323.604,52.734,-105.957,-300.781,315.918,0.000
1729906323.608,623.535,949.707,183.594,-1000.000,0.000
1729906323.612,-903.320,-417.480,-214.844,-1000.000,0.000
1729906323.616,-1000.000,-1000.000,-572.754,-109.863,0.000
1729906323.620,-100.098,-227.051,-416.504,725.586,0.000
1729906323.624,-906.250,-902.344,104.980,-717.773,0.000
1729906323.628,-97.168,178.711,-22.949,-1000.000,0.000
1729906323.632,-1000.000,-1000.000,-521.484,-197.754,0.000
1729906323.636,-373.047,-627.441,-534.180,-867.188,0.000
1729906323.639,-891.602,963.379,61.523,70.801,0.000
1729906323.643,259.277,366.699,83.008,-1000.000,0.000
1729906323.647,-1000.000,-1000.000,-528.320,-504.883,0.000
1729906323.651,-818.848,-1000.000,-557.617,-932.129,0.000
1729906323.655,819.336,425.293,-56.152,259.766,0.000
1729906323.659,519.531,854.980,299.805,-1000.000,0.000
1729906323.663,-987.305,-651.367,-259.277,-998.535,0.000
1729906323.667,-1000.000,-1000.000,-589.355,549.316,0.000
1729906323.671,103.516,-115.234,-301.270,562.012,0.000
1729906323.675,947.754,-886.719,190.430,-952.148,0.000
1729906323.678,-537.109,-74.219,-192.871,-1000.000,0.000
1729906323.682,-1000.000,-1000.000,-567.383,-131.836,0.000
1729906323.686,-197.266,-334.473,-422.363,923.828,0.000
1729906323.690,-864.746,-872.559,179.199,-458.008,0.000
1729906323.694,60.059,227.539,41.016,-1000.000,0.000
1729906323.698,-1000.000,-1000.000,-515.137,-290.039,0.000
1729906323.702,-485.840,-766.113,-546.875,-886.230,0.000
1729906323.706,-927.734,830.078,4.883,123.047,0.000
1729906323.710,273.438,524.902,195.312,-1000.000,0.000
1729906323.714,-1000.000,-1000.000,-422.363,-639.160,0.000
1729906323.718,-836.426,-1000.000,-598.145,928.223,0.000
1729906323.721,750.977,337.891,-25.391,288.086,0.000
1729906323.725,758.789,-920.410,399.902,-1000.000,0.000
1729906323.729,-835.449,-320.801,-209.961,-1000.000,0.000
1729906323.733,-1000.000,-1000.000,-663.574,374.023,0.000
1729906323.737,142.578,-83.496,-290.527,873.047,0.000
1729906323.741,-809.082,-800.293,426.270,-698.730,0.000
1729906323.745,-72.754,177.734,49.316,-1000.000,0.000
1729906323.749,-1000.000,-1000.000,-593.750,-97.656,0.000
1729906323.753,-232.422,-277.344,-397.461,-838.379,0.000
1729906323.757,-821.777,-816.895,337.891,-12.695,0.000
1729906323.761,240.723,356.934,157.715,-1000.000,0.000
1729906323.764,-1000.000,-1000.000,-561.035,-231.934,0.000
1729906323.768,-404.785,-617.676,-594.727,-827.148,0.000
1729906323.772,-857.910,967.285,83.496,234.863,0.000
1729906323.776,384.766,739.746,338.379,-1000.000,0.000
1729906323.780,-1000.000,-775.391,-342.773,-788.086,0.000
1729906323.784,-948.242,-1000.000,-678.711,860.840,0.000
1729906323.788,618.164,265.137,-88.379,343.262,0.000
1729906323.792,846.191,-894.043,395.508,-1000.000,0.000
1729906323.796,-697.754,-235.840,-240.723,-1000.000,0.000
1729906323.800,-1000.000,-1000.000,-683.105,92.285,0.000
1729906323.803,-104.980,-192.383,-362.793,705.566,0.000
1729906323.807,-862.793,-832.520,312.500,-819.824,0.000
1729906323.811,-93.750,164.062,-41.016,-1000.000,0.000
1729906323.815,-1000.000,-1000.000,-660.645,-178.711,0.000
1729906323.819,-266.113,-512.207,-557.617,-911.621,0.000
1729906323.823,-847.168,-938.965,44.922,-128.906,0.000
1729906323.827,235.352,283.691,-9.277,-1000.000,0.000
1729906323.831,-1000.000,-1000.000,-564.941,-552.734,0.000
1729906323.835,-842.773,-1000.000,-599.609,-983.887,0.000
1729906323.839,784.668,427.246,-99.121,268.066,0.000
1729906323.843,323.242,632.812,201.660,-1000.000,0.000
1729906323.846,-1000.000,-884.766,-362.793,-1000.000,0.000
1729906323.850,-1000.000,-1000.000,-638.184,453.125,0.000
1729906323.854,125.977,-107.422,-335.449,458.496,0.000
1729906323.858,808.105,-953.125,196.777,-1000.000,0.000
1729906323.862,-727.539,-243.652,-198.242,-1000.000,0.000
1729906323.866,-1000.000,-1000.000,-640.137,-20.996,0.000
1729906323.870,-201.172,-257.812,-418.945,978.516,0.000
1729906323.874,-858.887,-851.074,234.863,-458.496,0.000
1729906323.878,57.617,221.680,22.461,-1000.000,0.000
1729906323.882,-1000.000,-1000.000,-617.188,-208.984,0.000
1729906323.886,-292.480,-536.621,-608.887,-842.285,0.000
1729906323.889,-843.750,-954.590,80.566,204.590,0.000
1729906323.893,249.023,466.797,182.617,-1000.000,0.000
1729906323.897,-1000.000,-1000.000,-491.211,-405.273,0.000
1729906323.901,-702.148,-962.402,-638.672,-865.723,0.000
1729906323.905,945.801,512.207,-90.820,310.059,0.000
1729906323.909,605.469,979.492,337.891,-1000.000,0.000
1729906323.913,-943.848,-487.305,-306.152,-832.520,0.000
1729906323.917,-1000.000,-1000.000,-734.375,770.020,0.000
1729906323.921,176.270,-55.176,-276.367,774.902,0.000
1729906323.925,-878.906,-821.289,358.887,-790.527,0.000
1729906323.929,-281.738,70.801,-88.867,-1000.000,0.000
1729906323.932,-1000.000,-1000.000,-664.062,50.293,0.000
1729906323.936,-212.402,-299.805,-484.863,-832.031,0.000
1729906323.940,-842.285,-839.844,210.938,-118.652,0.000
1729906323.944,173.828,235.840,27.344,-1000.000,0.000
1729906323.948,-1000.000,-1000.000,-616.699,-225.586,0.000
1729906323.952,-484.375,-740.723,-598.145,-830.566,0.000
1729906323.956,-907.715,864.746,1.465,245.117,0.000
1729906323.960,253.906,500.000,200.684,-1000.000,0.000
1729906323.964,-1000.000,-996.582,-423.828,-534.668,0.000
1729906323.968,-976.562,-1000.000,-628.418,-917.969,0.000
1729906323.971,585.449,206.055,-132.812,357.422,0.000
1729906323.975,657.227,965.820,307.129,-1000.000,0.000
1729906323.979,-920.898,-485.840,-227.051,-1000.000,0.000
1729906323.983,-1000.000,-1000.000,-624.512,490.234,0.000
1729906323.987,-45.410,-170.898,-281.250,907.227,0.000
1729906323.991,-859.375,-843.750,346.680,-649.902,0.000
1729906323.995,-147.949,110.352,-21.973,-1000.000,0.000
1729906323.999,-1000.000,-1000.000,-587.402,-64.941,0.000
1729906324.003,-220.703,-380.859,-476.074,-816.406,0.000
1729906324.007,-830.078,-871.582,200.684,60.547,0.000
1729906324.011,243.164,318.848,243.164,-1000.000,0.000
1729906324.014,-1000.000,-1000.000,-413.574,-242.188,0.000
1729906324.018,-451.172,-700.684,-530.273,-817.383,0.000
1729906324.022,-879.395,865.723,129.395,242.188,0.000
1729906324.026,425.293,776.855,406.250,-1000.000,0.000
1729906324.030,-1000.000,-762.207,-270.020,-491.699,0.000
1729906324.034,-869.141,-1000.000,-645.996,-909.668,0.000
1729906324.038,665.527,231.445,-161.621,591.797,0.000
1729906324.042,-997.559,-820.312,427.734,-995.605,0.000
1729906324.046,-500.000,-51.270,-97.168,-958.496,0.000
1729906324.050,-1000.000,-1000.000,-673.828,528.320,0.000
1729906324.053,58.105,-143.066,-259.277,-861.816,0.000
1729906324.057,-787.109,-793.457,454.590,-246.582,0.000
1729906324.061,84.961,229.980,111.816,-1000.000,0.000
1729906324.065,-1000.000,-1000.000,-604.980,-75.195,0.000
1729906324.069,-249.023,-328.125,-488.281,-789.062,0.000
1729906324.073,-816.406,-838.379,283.691,204.102,0.000
1729906324.077,242.188,459.961,300.781,-1000.000,0.000
1729906324.081,-1000.000,-1000.000,-445.801,-262.695,0.000
1729906324.085,-538.574,-782.715,-658.203,-811.035,0.000
1729906324.089,-923.828,803.711,32.715,250.000,0.000
1729906324.093,504.395,853.027,303.223,-1000.000,0.000
1729906324.096,-1000.000,-656.250,-417.480,-634.766,0.000
1729906324.100,-1000.000,-1000.000,-722.168,-989.746,0.000
1729906324.104,425.293,119.141,-202.148,630.371,0.000
1729906324.108,-952.148,-813.965,383.789,-924.805,0.000
1729906324.112,-429.688,8.789,-145.996,-1000.000,0.000
1729906324.116,-1000.000,-1000.000,-739.746,208.984,0.000
1729906324.120,-132.812,-220.703,-377.930,-833.496,0.000
1729906324.124,-807.129,-802.246,324.707,-188.477,0.000
1729906324.128,145.996,232.910,-8.789,-1000.000,0.000
1729906324.132,-1000.000,-1000.000,-645.020,-222.168,0.000
1729906324.135,-165.527,-339.844,-576.172,-828.125,0.000
1729906324.139,-825.684,-901.367,129.883,241.211,0.000
1729906324.143,241.211,540.527,250.000,-1000.000,0.000
1729906324.147,-1000.000,-991.699,-475.586,-388.672,0.000
1729906324.151,-621.582,-914.062,-669.434,-853.516,0.000
1729906324.155,-981.445,594.238,-55.176,287.109,0.000
1729906324.159,616.699,-987.793,362.305,-1000.000,0.000
1729906324.163,-928.223,-414.551,-251.953,-882.324,0.000
1729906324.167,-1000.000,-1000.000,-709.473,716.797,0.000
1729906324.171,203.125,-41.992,-238.281,735.352,0.000
1729906324.175,-852.051,-812.988,412.598,-834.473,0.000
1729906324.178,-238.281,86.426,-41.992,-1000.000,0.000
1729906324.182,-1000.000,-1000.000,-724.609,-6.836,0.000
1729906324.186,-218.750,-282.715,-478.027,-845.703,0.000
1729906324.190,-833.008,-829.102,342.285,-126.953,0.000
1729906324.194,232.910,259.277,95.215,-1000.000,0.000
1729906324.198,-1000.000,-1000.000,-622.070,-223.633,0.000
1729906324.202,-409.180,-649.902,-601.074,-831.055,0.000
1729906324.206,-865.723,954.590,69.824,245.117,0.000
1729906324.210,254.883,556.152,270.996,-1000.000,0.000
1729906324.214,-1000.000,-972.656,-438.477,-525.391,0.000
1729906324.218,-858.398,-1000.000,-704.590,-913.086,0.000
1729906324.221,732.422,319.824,-97.656,399.902,0.000
1729906324.225,744.629,-947.754,355.957,-1000.000,0.000
1729906324.229,-832.031,-358.887,-298.828,-997.559,0.000
1729906324.233,-1000.000,-1000.000,-757.812,514.160,0.000
1729906324.237,46.387,-143.066,-367.676,912.109,0.000
1729906324.241,-833.984,-825.684,308.105,-631.836,0.000
1729906324.245,-121.094,130.859,-139.648,-1000.000,0.000
1729906324.249,-1000.000,-1000.000,-743.652,-91.309,0.000
1729906324.253,-225.586,-337.402,-539.062,-832.031,0.000
1729906324.257,-831.055,-848.145,179.688,3.418,0.000
1729906324.260,245.117,298.340,90.820,-1000.000,0.000
1729906324.264,-1000.000,-1000.000,-599.609,-233.887,0.000
1729906324.268,-538.574,-803.711,-638.184,-826.172,0.000
1729906324.272,-918.457,791.016,-8.789,244.141,0.000
1729906324.276,321.777,634.277,205.078,-1000.000,0.000
1729906324.280,-1000.000,-883.301,-465.332,-630.371,0.000
1729906324.284,-1000.000,-1000.000,-700.684,-975.586,0.000
1729906323.718,-836.426,-1000.000,-598.145,928.223,0.000
1729906323.721,750.977,337.891,-25.391,288.086,0.000
1729906323.725,758.789,-920.410,399.902,-1000.000,0.000
1729906323.729,-835.449,-320.801,-209.961,-1000.000,0.000
1729906323.733,-1000.000,-1000.000,-663.574,374.023,0.000
1729906323.737,142.578,-83.496,-290.527,873.047,0.000
1729906323.741,-809.082,-800.293,426.270,-698.730,0.000
1729906323.745,-72.754,177.734,49.316,-1000.000,0.000
1729906323.749,-1000.000,-1000.000,-593.750,-97.656,0.000
1729906323.753,-232.422,-277.344,-397.461,-838.379,0.000
1729906323.757,-821.777,-816.895,337.891,-12.695,0.000
1729906323.761,240.723,356.934,157.715,-1000.000,0.000
1729906323.764,-1000.000,-1000.000,-561.035,-231.934,0.000
1729906323.768,-404.785,-617.676,-594.727,-827.148,0.000
1729906323.772,-857.910,967.285,83.496,234.863,0.000
1729906323.776,384.766,739.746,338.379,-1000.000,0.000
1729906323.780,-1000.000,-775.391,-342.773,-788.086,0.000
1729906323.784,-948.242,-1000.000,-678.711,860.840,0.000
1729906323.788,618.164,265.137,-88.379,343.262,0.000
1729906323.792,846.191,-894.043,395.508,-1000.000,0.000
1729906323.796,-697.754,-235.840,-240.723,-1000.000,0.000
1729906323.800,-1000.000,-1000.000,-683.105,92.285,0.000
1729906323.803,-104.980,-192.383,-362.793,705.566,0.000
1729906323.807,-862.793,-832.520,312.500,-819.824,0.000
1729906323.811,-93.750,164.062,-41.016,-1000.000,0.000
1729906323.815,-1000.000,-1000.000,-660.645,-178.711,0.000
1729906323.819,-266.113,-512.207,-557.617,-911.621,0.000
1729906323.823,-847.168,-938.965,44.922,-128.906,0.000
1729906323.827,235.352,283.691,-9.277,-1000.000,0.000
1729906323.831,-1000.000,-1000.000,-564.941,-552.734,0.000
1729906323.835,-842.773,-1000.000,-599.609,-983.887,0.000
1729906323.839,784.668,427.246,-99.121,268.066,0.000
1729906323.843,323.242,632.812,201.660,-1000.000,0.000
1729906323.846,-1000.000,-884.766,-362.793,-1000.000,0.000
1729906323.850,-1000.000,-1000.000,-638.184,453.125,0.000
1729906323.854,125.977,-107.422,-335.449,458.496,0.000
1729906323.858,808.105,-953.125,196.777,-1000.000,0.000
1729906323.862,-727.539,-243.652,-198.242,-1000.000,0.000
1729906323.866,-1000.000,-1000.000,-640.137,-20.996,0.000
1729906323.870,-201.172,-257.812,-418.945,978.516,0.000
1729906323.874,-858.887,-851.074,234.863,-458.496,0.000
1729906323.878,57.617,221.680,22.461,-1000.000,0.000
1729906323.882,-1000.000,-1000.000,-617.188,-208.984,0.000
1729906323.886,-292.480,-536.621,-608.887,-842.285,0.000
1729906323.889,-843.750,-954.590,80.566,204.590,0.000
1729906323.893,249.023,466.797,182.617,-1000.000,0.000
1729906323.897,-1000.000,-1000.000,-491.211,-405.273,0.000
1729906323.901,-702.148,-962.402,-638.672,-865.723,0.000
1729906323.905,945.801,512.207,-90.820,310.059,0.000
1729906323.909,605.469,979.492,337.891,-1000.000,0.000
1729906323.913,-943.848,-487.305,-306.152,-832.520,0.000
1729906323.917,-1000.000,-1000.000,-734.375,770.020,0.000
1729906323.921,176.270,-55.176,-276.367,774.902,0.000
1729906323.925,-878.906,-821.289,358.887,-790.527,0.000
1729906323.929,-281.738,70.801,-88.867,-1000.000,0.000
1729906323.932,-1000.000,-1000.000,-664.062,50.293,0.000
1729906323.936,-212.402,-299.805,-484.863,-832.031,0.000
1729906323.940,-842.285,-839.844,210.938,-118.652,0.000
1729906323.944,173.828,235.840,27.344,-1000.000,0.000
1729906323.948,-1000.000,-1000.000,-616.699,-225.586,0.000
1729906323.952,-484.375,-740.723,-598.145,-830.566,0.000
1729906323.956,-907.715,864.746,1.465,245.117,0.000
1729906323.960,253.906,500.000,200.684,-1000.000,0.000
1729906323.964,-1000.000,-996.582,-423.828,-534.668,0.000
1729906323.968,-976.562,-1000.000,-628.418,-917.969,0.000
1729906323.971,585.449,206.055,-132.812,357.422,0.000
1729906323.975,657.227,965.820,307.129,-1000.000,0.000
1729906323.979,-920.898,-485.840,-227.051,-1000.000,0.000
1729906323.983,-1000.000,-1000.000,-624.512,490.234,0.000
1729906323.987,-45.410,-170.898,-281.250,907.227,0.000
1729906323.991,-859.375,-843.750,346.680,-649.902,0.000
1729906323.995,-147.949,110.352,-21.973,-1000.000,0.000
1729906323.999,-1000.000,-1000.000,-587.402,-64.941,0.000
1729906324.003,-220.703,-380.859,-476.074,-816.406,0.000
1729906324.007,-830.078,-871.582,200.684,60.547,0.000
1729906324.011,243.164,318.848,243.164,-1000.000,0.000
1729906324.014,-1000.000,-1000.000,-413.574,-242.188,0.000
1729906324.018,-451.172,-700.684,-530.273,-817.383,0.000
1729906324.022,-879.395,865.723,129.395,242.188,0.000
1729906324.026,425.293,776.855,406.250,-1000.000,0.000
1729906324.030,-1000.000,-762.207,-270.020,-491.699,0.000
1729906324.034,-869.141,-1000.000,-645.996,-909.668,0.000
1729906324.038,665.527,231.445,-161.621,591.797,0.000
1729906324.042,-997.559,-820.312,427.734,-995.605,0.000
1729906324.046,-500.000,-51.270,-97.168,-958.496,0.000
1729906324.050,-1000.000,-1000.000,-673.828,528.320,0.000
1729906324.053,58.105,-143.066,-259.277,-861.816,0.000
1729906324.057,-787.109,-793.457,454.590,-246.582,0.000
1729906324.061,84.961,229.980,111.816,-1000.000,0.000
1729906324.065,-1000.000,-1000.000,-604.980,-75.195,0.000
1729906324.069,-249.023,-328.125,-488.281,-789.062,0.000
1729906324.073,-816.406,-838.379,283.691,204.102,0.000
1729906324.077,242.188,459.961,300.781,-1000.000,0.000
1729906324.081,-1000.000,-1000.000,-445.801,-262.695,0.000
1729906324.085,-538.574,-782.715,-658.203,-811.035,0.000
1729906324.089,-923.828,803.711,32.715,250.000,0.000
1729906324.093,504.395,853.027,303.223,-1000.000,0.000
1729906324.096,-1000.000,-656.250,-417.480,-634.766,0.000
1729906324.100,-1000.000,-1000.000,-722.168,-989.746,0.000
1729906324.104,425.293,119.141,-202.148,630.371,0.000
1729906324.108,-952.148,-813.965,383.789,-924.805,0.000
1729906324.112,-429.688,8.789,-145.996,-1000.000,0.000
1729906324.116,-1000.000,-1000.000,-739.746,208.984,0.000
1729906324.120,-132.812,-220.703,-377.930,-833.496,0.000
1729906324.124,-807.129,-802.246,324.707,-188.477,0.000
1729906324.128,145.996,232.910,-8.789,-1000.000,0.000
1729906324.132,-1000.000,-1000.000,-645.020,-222.168,0.000
1729906324.135,-165.527,-339.844,-576.172,-828.125,0.000
1729906324.139,-825.684,-901.367,129.883,241.211,0.000
1729906324.143,241.211,540.527,250.000,-1000.000,0.000
1729906324.147,-1000.000,-991.699,-475.586,-388.672,0.000
1729906324.151,-621.582,-914.062,-669.434,-853.516,0.000
1729906324.155,-981.445,594.238,-55.176,287.109,0.000
1729906324.159,616.699,-987.793,362.305,-1000.000,0.000
1729906324.163,-928.223,-414.551,-251.953,-882.324,0.000
1729906324.167,-1000.000,-1000.000,-709.473,716.797,0.000
1729906324.171,203.125,-41.992,-238.281,735.352,0.000
1729906324.175,-852.051,-812.988,412.598,-834.473,0.000
1729906324.178,-238.281,86.426,-41.992,-1000.000,0.000
1729906324.182,-1000.000,-1000.000,-724.609,-6.836,0.000
1729906324.186,-218.750,-282.715,-478.027,-845.703,0.000
1729906324.190,-833.008,-829.102,342.285,-126.953,0.000
1729906324.194,232.910,259.277,95.215,-1000.000,0.000
1729906324.198,-1000.000,-1000.000,-622.070,-223.633,0.000
1729906324.202,-409.180,-649.902,-601.074,-831.055,0.000
1729906324.206,-865.723,954.590,69.824,245.117,0.000
1729906324.210,254.883,556.152,270.996,-1000.000,0.000
1729906324.214,-1000.000,-972.656,-438.477,-525.391,0.000
1729906324.218,-858.398,-1000.000,-704.590,-913.086,0.000
1729906324.221,732.422,319.824,-97.656,399.902,0.000
1729906324.225,744.629,-947.754,355.957,-1000.000,0.000
1729906324.229,-832.031,-358.887,-298.828,-997.559,0.000
1729906324.233,-1000.000,-1000.000,-757.812,514.160,0.000
1729906324.237,46.387,-143.066,-367.676,912.109,0.000
1729906324.241,-833.984,-825.684,308.105,-631.836,0.000
1729906324.245,-121.094,130.859,-139.648,-1000.000,0.000
1729906324.249,-1000.000,-1000.000,-743.652,-91.309,0.000
1729906324.253,-225.586,-337.402,-539.062,-832.031,0.000
1729906324.257,-831.055,-848.145,179.688,3.418,0.000
1729906324.260,245.117,298.340,90.820,-1000.000,0.000
1729906324.264,-1000.000,-1000.000,-599.609,-233.887,0.000
1729906324.268,-538.574,-803.711,-638.184,-826.172,0.000
1729906324.272,-918.457,791.016,-8.789,244.141,0.000
1729906324.276,321.777,634.277,205.078,-1000.000,0.000
1729906324.280,-1000.000,-883.301,-465.332,-630.371,0.000
1729906324.284,-1000.000,-1000.000,-700.684,-975.586,0.000
1729906324.288,391.113,57.617,-264.648,498.535,0.000
1729906324.292,796.387,-945.801,249.023,-1000.000,0.000
1729906324.296,-773.926,-296.875,-248.047,-1000.000,0.000
1729906324.300,-1000.000,-1000.000,-685.547,283.691,0.000
1729906324.303,-183.594,-230.469,-483.887,-961.914,0.000
1729906324.307,-869.629,-846.191,126.465,-446.289,0.000
1729906324.311,-37.598,179.199,-54.199,-1000.000,0.000
1729906324.315,-1000.000,-1000.000,-643.066,-199.707,0.000
1729906324.319,-226.074,-477.539,-537.598,-833.008,0.000
1729906324.323,-829.590,-917.969,134.277,167.969,0.000
1729906324.327,245.117,352.539,130.371,-1000.000,0.000
1729906324.331,-1000.000,-1000.000,-527.832,-250.977,0.000
1729906324.335,-619.629,-903.809,-635.254,-815.430,0.000
1729906324.339,-971.680,612.793,10.742,239.258,0.000
1729906324.342,509.277,854.004,397.461,-1000.000,0.000
1729906324.346,-1000.000,-678.223,-278.320,-669.922,0.000
1729906324.350,-1000.000,-1000.000,-640.625,971.191,0.000
1729906324.354,361.328,46.387,-140.137,649.902,0.000
1729906324.358,-915.527,-816.406,454.102,-906.738,0.000
1729906324.362,-402.832,-13.672,-42.480,-1000.000,0.000
1729906324.366,-1000.000,-1000.000,-639.160,175.293,0.000
1729906324.370,-49.805,-138.672,-308.594,-834.473,0.000
1729906324.374,-822.266,-822.266,402.832,-186.523,0.000
1729906324.378,196.289,265.137,161.621,-1000.000,0.000
1729906324.382,-1000.000,-1000.000,-536.621,-222.168,0.000
1729906324.385,-261.230,-403.809,-480.957,-829.590,0.000
1729906324.389,-809.570,-884.766,290.527,242.676,0.000
1729906324.393,289.062,586.426,350.586,-1000.000,0.000
1729906324.397,-1000.000,-989.258,-418.457,-414.551,0.000
1729906324.401,-540.039,-800.781,-612.793,-865.723,0.000
1729906324.405,-980.469,703.125,63.965,292.969,0.000
1729906324.409,812.012,-895.508,485.352,-1000.000,0.000
1729906324.413,-757.812,-220.215,-176.270,-859.375,0.000
1729906324.417,-1000.000,-1000.000,-688.965,761.230,0.000
1729906324.421,429.199,97.656,-145.020,715.820,0.000
1729906324.425,-813.965,-770.996,458.008,-841.797,0.000
1729906324.428,-78.613,160.156,-45.410,-1000.000,0.000
1729906324.432,-1000.000,-1000.000,-697.266,-48.828,0.000
1729906324.436,-188.477,-250.488,-420.898,-866.211,0.000
1729906324.440,-805.176,-805.664,365.234,-164.551,0.000
1729906324.444,229.492,339.844,117.188,-1000.000,0.000
1729906324.448,-1000.000,-1000.000,-629.395,-217.773,0.000
1729906324.452,-313.965,-530.762,-685.059,-837.891,0.000
1729906324.456,-825.195,-953.613,40.039,225.098,0.000
1729906324.460,307.129,655.762,216.309,-1000.000,0.000
1729906324.464,-1000.000,-874.023,-545.898,-716.797,0.000
1729906324.467,-817.871,-1000.000,-769.531,931.152,0.000
1729906324.471,792.480,402.832,-206.543,270.508,0.000
1729906324.475,780.762,-898.438,278.809,-1000.000,0.000
1729906324.479,-787.109,-258.789,-325.684,-1000.000,0.000
1729906324.483,-1000.000,-1000.000,-850.098,210.449,0.000
1729906324.487,75.684,-120.117,-457.520,666.016,0.000
1729906324.491,-815.430,-803.711,265.625,-886.719,0.000
1729906324.495,-62.988,183.594,-142.090,-1000.000,0.000
1729906324.499,-1000.000,-1000.000,-802.246,-183.105,0.000
1729906324.503,-231.934,-281.738,-576.172,-907.227,0.000
1729906324.507,-817.383,-821.777,211.426,-138.672,0.000
1729906324.510,235.840,430.664,153.320,-1000.000,0.000
1729906324.514,-1000.000,-1000.000,-640.137,-374.023,0.000
1729906324.518,-322.266,-529.785,-680.664,-894.531,0.000
1729906324.522,-840.332,976.562,88.867,255.371,0.000
1729906324.526,562.012,947.754,425.781,-1000.000,0.000
1729906324.530,-1000.000,-520.996,-323.242,-870.117,0.000
1729906324.534,-724.609,-1000.000,-715.820,752.930,0.000
1729906324.538,837.891,460.938,13.184,414.551,0.000
1729906324.542,-925.293,-804.688,556.152,-1000.000,0.000
1729906324.546,-327.148,6.836,-97.168,-1000.000,0.000
1729906324.550,-1000.000,-1000.000,-713.379,108.398,0.000
1729906324.553,127.930,-109.375,-171.387,879.883,0.000
1729906324.557,-765.137,-779.297,548.828,-633.789,0.000
1729906324.561,174.805,252.441,184.082,-1000.000,0.000
1729906324.565,-1000.000,-1000.000,-559.082,-193.848,0.000
1729906324.569,-266.602,-295.898,-366.699,-871.094,0.000
1729906324.573,-801.270,-841.309,422.852,21.973,0.000
1729906324.577,279.297,595.703,387.207,-1000.000,0.000
1729906324.581,-1000.000,-998.535,-359.863,-448.242,0.000
1729906324.585,-364.746,-609.375,-501.465,-910.156,0.000
1729906324.589,-881.348,918.945,296.387,255.371,0.000
1729906324.592,719.727,-962.402,547.852,-1000.000,0.000
1729906324.596,-880.371,-325.195,-134.277,-962.402,0.000
1729906324.600,-879.395,-1000.000,-629.395,617.676,0.000
1729906324.604,667.969,271.484,-1.465,552.734,0.000
1729906324.608,-849.609,-775.879,574.707,-972.168,0.000
1729906324.612,-169.434,109.375,25.879,-1000.000,0.000
1729906324.616,-1000.000,-1000.000,-645.996,-18.066,0.000
1729906324.620,-7.324,-200.195,-297.363,980.957,0.000
1729906324.624,-770.996,-793.457,464.844,-447.754,0.000
1729906324.628,204.590,302.246,213.379,-1000.000,0.000
1729906324.632,-1000.000,-1000.000,-574.219,-198.730,0.000
1729906324.635,-267.090,-403.320,-658.691,-860.840,0.000
1729906324.639,-809.570,-880.371,164.551,95.215,0.000
1729906324.643,271.484,604.980,331.055,-1000.000,0.000
1729906324.647,-1000.000,-938.965,-501.953,-666.016,0.000
1729906324.651,-623.535,-904.297,-778.320,955.566,0.000
1729906324.655,-986.328,622.070,-48.828,269.531,0.000
1729906324.659,658.203,-961.914,384.766,-1000.000,0.000
1729906324.663,-897.949,-372.070,-384.277,-1000.000,0.000
1729906324.667,-1000.000,-1000.000,-890.625,262.695,0.000
1729906324.671,229.492,-12.695,-331.055,549.805,0.000
1729906324.674,-831.543,-799.316,311.035,-955.566,0.000
1729906324.678,-184.570,123.047,-199.219,-1000.000,0.000
1729906324.682,-1000.000,-1000.000,-848.633,-137.695,0.000
1729906324.686,-223.145,-267.090,-578.125,934.082,0.000
1729906324.690,-825.195,-816.406,213.379,-432.617,0.000
1729906324.694,237.793,293.457,0.488,-1000.000,0.000
1729906324.698,-1000.000,-1000.000,-808.594,-376.953,0.000
1729906324.702,-328.613,-556.641,-731.445,-922.852,0.000
1729906324.706,-830.566,-985.352,41.504,128.906,0.000
1729906324.710,331.055,677.734,266.602,-1000.000,0.000
1729906324.714,-1000.000,-871.094,-523.926,-906.250,0.000
1729906324.717,-752.441,-1000.000,-796.875,656.738,0.000
1729906324.721,844.727,426.270,-51.758,305.664,0.000
1729906324.725,849.609,-878.906,402.832,-1000.000,0.000
1729906324.729,-696.777,-213.867,-298.340,-1000.000,0.000
1729906324.733,-1000.000,-1000.000,-798.828,96.680,0.000
1729906324.737,133.789,-103.516,-305.664,618.164,0.000
1729906324.741,-799.316,-798.828,409.668,-891.602,0.000
1729906324.745,-27.832,184.570,0.488,-1000.000,0.000
1729906324.749,-1000.000,-1000.000,-729.980,-174.805,0.000
1729906324.753,-237.305,-298.340,-521.484,-930.664,0.000
1729906324.757,-816.406,-826.660,275.879,-188.477,0.000
1729906324.760,236.816,420.898,329.102,-1000.000,0.000
1729906324.764,-1000.000,-1000.000,-461.914,-456.055,0.000
1729906324.768,-345.215,-581.543,-605.957,-935.547,0.000
1729906324.772,-844.238,960.938,199.219,260.254,0.000
1729906324.776,528.809,890.625,464.355,-1000.000,0.000
1729906324.780,-1000.000,-601.074,-299.805,-970.703,0.000
1729906324.784,-771.484,-1000.000,-711.914,600.098,0.000
1729906324.788,785.645,363.770,12.207,383.301,0.000
1729906324.792,-935.547,-807.617,545.898,-1000.000,0.000
1729906324.796,-352.051,-8.301,-91.309,-1000.000,0.000
1729906324.799,-1000.000,-1000.000,-722.168,26.367,0.000
1729906324.803,66.895,-154.297,-257.812,799.316,0.000
1729906324.807,-774.414,-791.016,487.305,-703.125,0.000
1729906324.811,151.367,233.398,128.906,-1000.000,0.000
1729906324.815,-1000.000,-1000.000,-658.203,-188.477,0.000
1729906324.819,-258.789,-323.730,-491.699,-884.766,0.000
1729906324.823,-809.570,-844.238,354.980,-20.020,0.000
1729906324.827,239.258,523.926,365.723,-1000.000,0.000
1729906324.831,-1000.000,-1000.000,-442.383,-561.523,0.000
1729906324.835,-488.281,-736.328,-685.059,-974.609,0.000
1729906324.839,-905.762,840.820,88.867,260.742,0.000
1729906324.842,572.754,921.875,391.602,-1000.000,0.000
1729906324.846,-986.328,-546.387,-405.762,-1000.000,0.000
1729906324.850,-1000.000,-1000.000,-802.246,376.953,0.000
1729906324.854,465.820,145.020,-174.316,466.309,0.000
1729906324.288,391.113,57.617,-264.648,498.535,0.000
1729906324.292,796.387,-945.801,249.023,-1000.000,0.000
1729906324.296,-773.926,-296.875,-248.047,-1000.000,0.000
1729906324.300,-1000.000,-1000.000,-685.547,283.691,0.000
1729906324.303,-183.594,-230.469,-483.887,-961.914,0.000
1729906324.307,-869.629,-846.191,126.465,-446.289,0.000
1729906324.311,-37.598,179.199,-54.199,-1000.000,0.000
1729906324.315,-1000.000,-1000.000,-643.066,-199.707,0.000
1729906324.319,-226.074,-477.539,-537.598,-833.008,0.000
1729906324.323,-829.590,-917.969,134.277,167.969,0.000
1729906324.327,245.117,352.539,130.371,-1000.000,0.000
1729906324.331,-1000.000,-1000.000,-527.832,-250.977,0.000
1729906324.335,-619.629,-903.809,-635.254,-815.430,0.000
1729906324.339,-971.680,612.793,10.742,239.258,0.000
1729906324.342,509.277,854.004,397.461,-1000.000,0.000
1729906324.346,-1000.000,-678.223,-278.320,-669.922,0.000
1729906324.350,-1000.000,-1000.000,-640.625,971.191,0.000
1729906324.354,361.328,46.387,-140.137,649.902,0.000
1729906324.358,-915.527,-816.406,454.102,-906.738,0.000
1729906324.362,-402.832,-13.672,-42.480,-1000.000,0.000
1729906324.366,-1000.000,-1000.000,-639.160,175.293,0.000
1729906324.370,-49.805,-138.672,-308.594,-834.473,0.000
1729906324.374,-822.266,-822.266,402.832,-186.523,0.000
1729906324.378,196.289,265.137,161.621,-1000.000,0.000
1729906324.382,-1000.000,-1000.000,-536.621,-222.168,0.000
1729906324.385,-261.230,-403.809,-480.957,-829.590,0.000
1729906324.389,-809.570,-884.766,290.527,242.676,0.000
1729906324.393,289.062,586.426,350.586,-1000.000,0.000
1729906324.397,-1000.000,-989.258,-418.457,-414.551,0.000
1729906324.401,-540.039,-800.781,-612.793,-865.723,0.000
1729906324.405,-980.469,703.125,63.965,292.969,0.000
1729906324.409,812.012,-895.508,485.352,-1000.000,0.000
1729906324.413,-757.812,-220.215,-176.270,-859.375,0.000
1729906324.417,-1000.000,-1000.000,-688.965,761.230,0.000
1729906324.421,429.199,97.656,-145.020,715.820,0.000
1729906324.425,-813.965,-770.996,458.008,-841.797,0.000
1729906324.428,-78.613,160.156,-45.410,-1000.000,0.000
1729906324.432,-1000.000,-1000.000,-697.266,-48.828,0.000
1729906324.436,-188.477,-250.488,-420.898,-866.211,0.000
1729906324.440,-805.176,-805.664,365.234,-164.551,0.000
1729906324.444,229.492,339.844,117.188,-1000.000,0.000
1729906324.448,-1000.000,-1000.000,-629.395,-217.773,0.000
1729906324.452,-313.965,-530.762,-685.059,-837.891,0.000
1729906324.456,-825.195,-953.613,40.039,225.098,0.000
1729906324.460,307.129,655.762,216.309,-1000.000,0.000
1729906324.464,-1000.000,-874.023,-545.898,-716.797,0.000
1729906324.467,-817.871,-1000.000,-769.531,931.152,0.000
1729906324.471,792.480,402.832,-206.543,270.508,0.000
1729906324.475,780.762,-898.438,278.809,-1000.000,0.000
1729906324.479,-787.109,-258.789,-325.684,-1000.000,0.000
1729906324.483,-1000.000,-1000.000,-850.098,210.449,0.000
1729906324.487,75.684,-120.117,-457.520,666.016,0.000
1729906324.491,-815.430,-803.711,265.625,-886.719,0.000
1729906324.495,-62.988,183.594,-142.090,-1000.000,0.000
1729906324.499,-1000.000,-1000.000,-802.246,-183.105,0.000
1729906324.503,-231.934,-281.738,-576.172,-907.227,0.000
1729906324.507,-817.383,-821.777,211.426,-138.672,0.000
1729906324.510,235.840,430.664,153.320,-1000.000,0.000
1729906324.514,-1000.000,-1000.000,-640.137,-374.023,0.000
1729906324.518,-322.266,-529.785,-680.664,-894.531,0.000
1729906324.522,-840.332,976.562,88.867,255.371,0.000
1729906324.526,562.012,947.754,425.781,-1000.000,0.000
1729906324.530,-1000.000,-520.996,-323.242,-870.117,0.000
1729906324.534,-724.609,-1000.000,-715.820,752.930,0.000
1729906324.538,837.891,460.938,13.184,414.551,0.000
1729906324.542,-925.293,-804.688,556.152,-1000.000,0.000
1729906324.546,-327.148,6.836,-97.168,-1000.000,0.000
1729906324.550,-1000.000,-1000.000,-713.379,108.398,0.000
1729906324.553,127.930,-109.375,-171.387,879.883,0.000
1729906324.557,-765.137,-779.297,548.828,-633.789,0.000
1729906324.561,174.805,252.441,184.082,-1000.000,0.000
1729906324.565,-1000.000,-1000.000,-559.082,-193.848,0.000
1729906324.569,-266.602,-295.898,-366.699,-871.094,0.000
1729906324.573,-801.270,-841.309,422.852,21.973,0.000
1729906324.577,279.297,595.703,387.207,-1000.000,0.000
1729906324.581,-1000.000,-998.535,-359.863,-448.242,0.000
1729906324.585,-364.746,-609.375,-501.465,-910.156,0.000
1729906324.589,-881.348,918.945,296.387,255.371,0.000
1729906324.592,719.727,-962.402,547.852,-1000.000,0.000
1729906324.596,-880.371,-325.195,-134.277,-962.402,0.000
1729906324.600,-879.395,-1000.000,-629.395,617.676,0.000
1729906324.604,667.969,271.484,-1.465,552.734,0.000
1729906324.608,-849.609,-775.879,574.707,-972.168,0.000
1729906324.612,-169.434,109.375,25.879,-1000.000,0.000
1729906324.616,-1000.000,-1000.000,-645.996,-18.066,0.000
1729906324.620,-7.324,-200.195,-297.363,980.957,0.000
1729906324.624,-770.996,-793.457,464.844,-447.754,0.000
1729906324.628,204.590,302.246,213.379,-1000.000,0.000
1729906324.632,-1000.000,-1000.000,-574.219,-198.730,0.000
1729906324.635,-267.090,-403.320,-658.691,-860.840,0.000
1729906324.639,-809.570,-880.371,164.551,95.215,0.000
1729906324.643,271.484,604.980,331.055,-1000.000,0.000
1729906324.647,-1000.000,-938.965,-501.953,-666.016,0.000
1729906324.651,-623.535,-904.297,-778.320,955.566,0.000
1729906324.655,-986.328,622.070,-48.828,269.531,0.000
1729906324.659,658.203,-961.914,384.766,-1000.000,0.000
1729906324.663,-897.949,-372.070,-384.277,-1000.000,0.000
1729906324.667,-1000.000,-1000.000,-890.625,262.695,0.000
1729906324.671,229.492,-12.695,-331.055,549.805,0.000
1729906324.674,-831.543,-799.316,311.035,-955.566,0.000
1729906324.678,-184.570,123.047,-199.219,-1000.000,0.000
1729906324.682,-1000.000,-1000.000,-848.633,-137.695,0.000
1729906324.686,-223.145,-267.090,-578.125,934.082,0.000
1729906324.690,-825.195,-816.406,213.379,-432.617,0.000
1729906324.694,237.793,293.457,0.488,-1000.000,0.000
1729906324.698,-1000.000,-1000.000,-808.594,-376.953,0.000
1729906324.702,-328.613,-556.641,-731.445,-922.852,0.000
1729906324.706,-830.566,-985.352,41.504,128.906,0.000
1729906324.710,331.055,677.734,266.602,-1000.000,0.000
1729906324.714,-1000.000,-871.094,-523.926,-906.250,0.000
1729906324.717,-752.441,-1000.000,-796.875,656.738,0.000
1729906324.721,844.727,426.270,-51.758,305.664,0.000
1729906324.725,849.609,-878.906,402.832,-1000.000,0.000
1729906324.729,-696.777,-213.867,-298.340,-1000.000,0.000
1729906324.733,-1000.000,-1000.000,-798.828,96.680,0.000
1729906324.737,133.789,-103.516,-305.664,618.164,0.000
1729906324.741,-799.316,-798.828,409.668,-891.602,0.000
1729906324.745,-27.832,184.570,0.488,-1000.000,0.000
1729906324.749,-1000.000,-1000.000,-729.980,-174.805,0.000
1729906324.753,-237.305,-298.340,-521.484,-930.664,0.000
1729906324.757,-816.406,-826.660,275.879,-188.477,0.000
1729906324.760,236.816,420.898,329.102,-1000.000,0.000
1729906324.764,-1000.000,-1000.000,-461.914,-456.055,0.000
1729906324.768,-345.215,-581.543,-605.957,-935.547,0.000
1729906324.772,-844.238,960.938,199.219,260.254,0.000
1729906324.776,528.809,890.625,464.355,-1000.000,0.000
1729906324.780,-1000.000,-601.074,-299.805,-970.703,0.000
1729906324.784,-771.484,-1000.000,-711.914,600.098,0.000
1729906324.788,785.645,363.770,12.207,383.301,0.000
1729906324.792,-935.547,-807.617,545.898,-1000.000,0.000
1729906324.796,-352.051,-8.301,-91.309,-1000.000,0.000
1729906324.799,-1000.000,-1000.000,-722.168,26.367,0.000
1729906324.803,66.895,-154.297,-257.812,799.316,0.000
1729906324.807,-774.414,-791.016,487.305,-703.125,0.000
1729906324.811,151.367,233.398,128.906,-1000.000,0.000
1729906324.815,-1000.000,-1000.000,-658.203,-188.477,0.000
1729906324.819,-258.789,-323.730,-491.699,-884.766,0.000
1729906324.823,-809.570,-844.238,354.980,-20.020,0.000
1729906324.827,239.258,523.926,365.723,-1000.000,0.000
1729906324.831,-1000.000,-1000.000,-442.383,-561.523,0.000
1729906324.835,-488.281,-736.328,-685.059,-974.609,0.000
1729906324.839,-905.762,840.820,88.867,260.742,0.000
1729906324.842,572.754,921.875,391.602,-1000.000,0.000
1729906324.846,-986.328,-546.387,-405.762,-1000.000,0.000
1729906324.850,-1000.000,-1000.000,-802.246,376.953,0.000
1729906324.854,465.820,145.020,-174.316,466.309,0.000
1729906324.858,-901.855,-798.828,412.598,-1000.000,0.000
1729906324.862,-320.312,50.293,-190.430,-1000.000,0.000
1729906324.866,-1000.000,-1000.000,-832.031,-109.375,0.000
1729906324.870,-169.434,-236.816,-505.371,815.430,0.000
1729906324.874,-819.336,-812.500,272.949,-607.422,0.000
1729906324.878,175.781,250.977,-1.953,-1000.000,0.000
1729906324.881,-1000.000,-1000.000,-791.992,-312.500,0.000
1729906324.885,-260.742,-500.488,-719.238,-925.781,0.000
1729906324.889,-817.383,-923.340,67.383,-3.418,0.000
1729906324.893,236.816,492.188,121.094,-1000.000,0.000
1729906324.897,-1000.000,-1000.000,-671.875,-840.820,0.000
1729906324.901,-723.633,-1000.000,-799.805,721.680,0.000
1729906324.905,920.410,450.684,-237.305,298.828,0.000
1729906324.909,635.254,992.188,217.285,-1000.000,0.000
1729906324.913,-930.176,-466.797,-383.301,-1000.000,0.000
1729906324.917,-1000.000,-1000.000,-838.379,111.328,0.000
1729906324.921,160.156,-77.148,-340.332,451.172,0.000
1729906324.924,-839.355,-820.312,306.152,-973.633,0.000
1729906324.928,-197.266,90.820,-167.480,-1000.000,0.000
1729906324.932,-1000.000,-1000.000,-841.797,-117.676,0.000
1729906324.936,-221.191,-281.250,-575.684,851.562,0.000
1729906324.940,-826.660,-827.148,248.047,-549.316,0.000
1729906324.944,238.281,289.062,151.855,-1000.000,0.000
1729906324.948,-1000.000,-1000.000,-616.699,-463.379,0.000
1729906324.952,-339.844,-592.773,-644.531,-975.098,0.000
1729906324.956,-833.984,990.234,119.141,87.402,0.000
1729906324.960,351.074,653.809,365.234,-1000.000,0.000
1729906324.964,-1000.000,-890.137,-409.668,-999.023,0.000
1729906324.967,-769.043,-1000.000,-720.215,491.699,0.000
1729906324.971,832.031,364.258,-6.348,315.430,0.000
1729906324.975,852.051,-892.090,478.027,-1000.000,0.000
1729906324.979,-685.547,-242.188,-183.594,-1000.000,0.000
1729906324.983,-1000.000,-1000.000,-743.652,-15.137,0.000
1729906324.987,84.961,-142.090,-304.688,529.785,0.000
1729906324.991,-807.617,-812.500,411.621,-908.203,0.000
1729906324.995,-40.039,172.363,5.371,-1000.000,0.000
1729906324.999,-1000.000,-1000.000,-710.449,-139.648,0.000
1729906325.003,-234.375,-326.172,-453.125,954.102,0.000
1729906325.006,-823.242,-838.379,361.328,-394.043,0.000
1729906325.010,242.676,352.051,246.094,-1000.000,0.000
1729906325.014,-1000.000,-1000.000,-538.574,-667.480,0.000
1729906325.018,-479.492,-746.094,-655.273,874.023,0.000
1729906325.022,-890.625,844.238,68.848,146.973,0.000
1729906325.026,431.641,744.141,234.863,-1000.000,0.000
1729906325.030,-1000.000,-781.250,-499.023,-1000.000,0.000
1729906325.034,-998.535,-1000.000,-760.254,190.918,0.000
1729906325.038,518.555,140.137,-220.703,308.105,0.000
1729906325.042,932.617,-869.629,322.266,-1000.000,0.000
1729906325.046,-594.238,-164.551,-274.902,-1000.000,0.000
1729906325.049,-1000.000,-1000.000,-789.551,-58.594,0.000
1729906325.053,-138.672,-214.844,-520.996,496.094,0.000
1729906325.057,-840.332,-826.660,187.988,-895.020,0.000
1729906325.061,25.879,209.473,-45.898,-1000.000,0.000
1729906325.065,-1000.000,-1000.000,-762.207,-397.461,0.000
1729906325.069,-234.863,-454.102,-643.555,835.449,0.000
1729906325.073,-825.195,-895.508,81.543,-399.414,0.000
1729906325.077,244.141,385.254,94.238,-1000.000,0.000
1729906325.081,-1000.000,-1000.000,-624.512,-961.914,0.000
1729906325.085,-626.953,-902.832,-703.613,456.543,0.000
1729906325.088,-976.562,610.352,-38.574,199.219,0.000
1729906325.092,537.109,896.484,337.891,-1000.000,0.000
1729906325.096,-993.164,-611.328,-353.027,-1000.000,0.000
1729906325.100,-1000.000,-1000.000,-750.977,-20.508,0.000
1729906325.104,279.785,-2.930,-260.254,272.949,0.000
1729906325.108,-880.859,-809.082,365.234,-1000.000,0.000
1729906325.112,-367.188,-9.766,-187.012,-1000.000,0.000
1729906325.116,-1000.000,-1000.000,-754.395,-210.938,0.000
1729906325.120,-6.348,-59.082,-391.602,306.641,0.000
1729906325.124,-839.355,-833.984,312.988,-824.707,0.000
1729906325.128,210.938,262.695,81.055,-1000.000,0.000
1729906325.131,-1000.000,-1000.000,-622.070,-529.297,0.000
1729906325.135,-260.254,-461.426,-545.898,937.012,0.000
1729906325.139,-811.035,-905.762,189.453,-108.887,0.000
1729906325.143,269.531,552.246,305.176,-1000.000,0.000
1729906325.147,-1000.000,-998.535,-464.355,-1000.000,0.000
1729906325.151,-623.047,-904.297,-660.645,422.852,0.000
1729906325.155,991.211,582.520,47.363,331.055,0.000
1729906325.159,741.211,-926.758,476.074,-1000.000,0.000
1729906325.163,-818.359,-309.570,-186.035,-1000.000,0.000
1729906325.167,-1000.000,-1000.000,-697.754,116.699,0.000
1729906325.171,246.582,-24.902,-209.473,410.156,0.000
1729906325.174,-809.082,-792.969,456.055,-968.262,0.000
1729906325.178,-94.727,152.344,11.719,-1000.000,0.000
1729906325.182,-1000.000,-1000.000,-686.035,-120.605,0.000
1729906325.186,-231.445,-264.648,-395.020,864.746,0.000
1729906325.190,-818.359,-812.988,395.020,-530.762,0.000
1729906325.194,235.840,345.215,215.332,-1000.000,0.000
1729906325.198,-1000.000,-1000.000,-519.043,-483.887,0.000
1729906325.202,-312.988,-547.363,-583.984,-984.863,0.000
1729906325.206,-825.684,-988.770,143.555,116.211,0.000
1729906325.210,397.949,753.906,391.602,-1000.000,0.000
1729906325.213,-1000.000,-779.297,-361.816,-955.566,0.000
1729906325.217,-773.438,-1000.000,-743.164,562.988,0.000
1729906325.221,833.008,399.902,-55.176,305.176,0.000
1729906325.225,873.047,-857.910,447.266,-1000.000,0.000
1729906325.229,-651.367,-156.738,-240.723,-1000.000,0.000
1729906325.233,-1000.000,-1000.000,-799.805,-26.855,0.000
1729906325.237,64.453,-141.113,-394.531,535.645,0.000
1729906325.241,-807.617,-804.199,349.609,-902.344,0.000
1729906325.245,-26.367,191.895,-64.453,-1000.000,0.000
1729906325.249,-1000.000,-1000.000,-784.668,-151.855,0.000
1729906325.253,-235.840,-337.402,-605.469,975.586,0.000
1729906325.256,-823.730,-840.332,173.828,-353.516,0.000
1729906325.260,243.652,352.539,106.934,-1000.000,0.000
1729906325.264,-1000.000,-1000.000,-697.266,-652.832,0.000
1729906325.268,-520.508,-764.648,-767.578,900.391,0.000
1729906325.272,-911.621,817.871,-4.395,195.312,0.000
1729906325.276,444.824,775.879,274.414,-1000.000,0.000
1729906325.280,-1000.000,-753.906,-472.168,-1000.000,0.000
1729906325.284,-1000.000,-1000.000,-775.879,264.648,0.000
1729906325.288,497.559,144.531,-233.887,315.430,0.000
1729906325.292,968.262,-851.562,291.016,-1000.000,0.000
1729906325.295,-551.270,-115.234,-296.875,-1000.000,0.000
1729906325.299,-1000.000,-1000.000,-798.828,-69.336,0.000
1729906325.303,-104.492,-207.031,-446.777,589.844,0.000
1729906325.307,-821.777,-818.848,285.645,-849.609,0.000
1729906325.311,73.730,217.285,-57.617,-1000.000,0.000
1729906325.315,-1000.000,-1000.000,-758.301,-315.430,0.000
1729906325.319,-242.676,-435.059,-608.398,-988.770,0.000
1729906325.323,-821.777,-885.254,93.750,-183.105,0.000
1729906325.327,243.164,422.852,108.887,-1000.000,0.000
1729906325.331,-1000.000,-1000.000,-573.242,-817.871,0.000
1729906325.335,-625.488,-922.363,-681.641,719.727,0.000
1729906325.338,-978.027,591.309,-24.902,295.410,0.000
1729906325.342,555.176,909.668,374.023,-1000.000,0.000
1729906325.346,-1000.000,-612.305,-314.453,-1000.000,0.000
1729906325.350,-1000.000,-1000.000,-689.453,91.797,0.000
1729906325.354,353.027,48.340,-201.172,260.254,0.000
1729906325.358,-900.879,-844.238,385.254,-1000.000,0.000
1729906325.362,-316.895,18.066,-92.285,-1000.000,0.000
1729906325.366,-1000.000,-1000.000,-714.844,-93.750,0.000
1729906325.370,-206.543,-247.070,-367.188,721.191,0.000
1729906325.374,-827.637,-821.777,395.020,-715.820,0.000
1729906325.377,215.332,256.348,141.113,-1000.000,0.000
1729906325.381,-1000.000,-1000.000,-570.801,-426.270,0.000
1729906325.385,-266.113,-514.648,-573.242,-985.352,0.000
1729906325.389,-877.930,-993.652,123.047,-28.320,0.000
1729906325.393,149.902,453.613,304.199,-1000.000,0.000
1729906325.397,-1000.000,-980.957,-391.602,-940.918,0.000
1729906325.401,-741.699,-1000.000,-650.879,562.012,0.000
1729906325.405,890.625,428.223,-2.441,312.988,0.000
1729906325.409,673.340,-985.352,421.875,-1000.000,0.000
1729906325.413,-890.137,-428.223,-277.344,-1000.000,0.000
1729906325.417,-1000.000,-1000.000,-756.836,29.785,0.000
1729906325.420,109.863,-107.422,-291.504,433.594,0.000
1729906325.424,-838.379,-823.242,375.488,-962.891,0.000
1729906324.858,-901.855,-798.828,412.598,-1000.000,0.000
1729906324.862,-320.312,50.293,-190.430,-1000.000,0.000
1729906324.866,-1000.000,-1000.000,-832.031,-109.375,0.000
1729906324.870,-169.434,-236.816,-505.371,815.430,0.000
1729906324.874,-819.336,-812.500,272.949,-607.422,0.000
1729906324.878,175.781,250.977,-1.953,-1000.000,0.000
1729906324.881,-1000.000,-1000.000,-791.992,-312.500,0.000
1729906324.885,-260.742,-500.488,-719.238,-925.781,0.000
1729906324.889,-817.383,-923.340,67.383,-3.418,0.000
1729906324.893,236.816,492.188,121.094,-1000.000,0.000
1729906324.897,-1000.000,-1000.000,-671.875,-840.820,0.000
1729906324.901,-723.633,-1000.000,-799.805,721.680,0.000
1729906324.905,920.410,450.684,-237.305,298.828,0.000
1729906324.909,635.254,992.188,217.285,-1000.000,0.000
1729906324.913,-930.176,-466.797,-383.301,-1000.000,0.000
1729906324.917,-1000.000,-1000.000,-838.379,111.328,0.000
1729906324.921,160.156,-77.148,-340.332,451.172,0.000
1729906324.924,-839.355,-820.312,306.152,-973.633,0.000
1729906324.928,-197.266,90.820,-167.480,-1000.000,0.000
1729906324.932,-1000.000,-1000.000,-841.797,-117.676,0.000
1729906324.936,-221.191,-281.250,-575.684,851.562,0.000
1729906324.940,-826.660,-827.148,248.047,-549.316,0.000
1729906324.944,238.281,289.062,151.855,-1000.000,0.000
1729906324.948,-1000.000,-1000.000,-616.699,-463.379,0.000
1729906324.952,-339.844,-592.773,-644.531,-975.098,0.000
1729906324.956,-833.984,990.234,119.141,87.402,0.000
1729906324.960,351.074,653.809,365.234,-1000.000,0.000
1729906324.964,-1000.000,-890.137,-409.668,-999.023,0.000
1729906324.967,-769.043,-1000.000,-720.215,491.699,0.000
1729906324.971,832.031,364.258,-6.348,315.430,0.000
1729906324.975,852.051,-892.090,478.027,-1000.000,0.000
1729906324.979,-685.547,-242.188,-183.594,-1000.000,0.000
1729906324.983,-1000.000,-1000.000,-743.652,-15.137,0.000
1729906324.987,84.961,-142.090,-304.688,529.785,0.000
1729906324.991,-807.617,-812.500,411.621,-908.203,0.000
1729906324.995,-40.039,172.363,5.371,-1000.000,0.000
1729906324.999,-1000.000,-1000.000,-710.449,-139.648,0.000
1729906325.003,-234.375,-326.172,-453.125,954.102,0.000
1729906325.006,-823.242,-838.379,361.328,-394.043,0.000
1729906325.010,242.676,352.051,246.094,-1000.000,0.000
1729906325.014,-1000.000,-1000.000,-538.574,-667.480,0.000
1729906325.018,-479.492,-746.094,-655.273,874.023,0.000
1729906325.022,-890.625,844.238,68.848,146.973,0.000
1729906325.026,431.641,744.141,234.863,-1000.000,0.000
1729906325.030,-1000.000,-781.250,-499.023,-1000.000,0.000
1729906325.034,-998.535,-1000.000,-760.254,190.918,0.000
1729906325.038,518.555,140.137,-220.703,308.105,0.000
1729906325.042,932.617,-869.629,322.266,-1000.000,0.000
1729906325.046,-594.238,-164.551,-274.902,-1000.000,0.000
1729906325.049,-1000.000,-1000.000,-789.551,-58.594,0.000
1729906325.053,-138.672,-214.844,-520.996,496.094,0.000
1729906325.057,-840.332,-826.660,187.988,-895.020,0.000
1729906325.061,25.879,209.473,-45.898,-1000.000,0.000
1729906325.065,-1000.000,-1000.000,-762.207,-397.461,0.000
1729906325.069,-234.863,-454.102,-643.555,835.449,0.000
1729906325.073,-825.195,-895.508,81.543,-399.414,0.000
1729906325.077,244.141,385.254,94.238,-1000.000,0.000
1729906325.081,-1000.000,-1000.000,-624.512,-961.914,0.000
1729906325.085,-626.953,-902.832,-703.613,456.543,0.000
1729906325.088,-976.562,610.352,-38.574,199.219,0.000
1729906325.092,537.109,896.484,337.891,-1000.000,0.000
1729906325.096,-993.164,-611.328,-353.027,-1000.000,0.000
1729906325.100,-1000.000,-1000.000,-750.977,-20.508,0.000
1729906325.104,279.785,-2.930,-260.254,272.949,0.000
1729906325.108,-880.859,-809.082,365.234,-1000.000,0.000
1729906325.112,-367.188,-9.766,-187.012,-1000.000,0.000
1729906325.116,-1000.000,-1000.000,-754.395,-210.938,0.000
1729906325.120,-6.348,-59.082,-391.602,306.641,0.000
1729906325.124,-839.355,-833.984,312.988,-824.707,0.000
1729906325.128,210.938,262.695,81.055,-1000.000,0.000
1729906325.131,-1000.000,-1000.000,-622.070,-529.297,0.000
1729906325.135,-260.254,-461.426,-545.898,937.012,0.000
1729906325.139,-811.035,-905.762,189.453,-108.887,0.000
1729906325.143,269.531,552.246,305.176,-1000.000,0.000
1729906325.147,-1000.000,-998.535,-464.355,-1000.000,0.000
1729906325.151,-623.047,-904.297,-660.645,422.852,0.000
1729906325.155,991.211,582.520,47.363,331.055,0.000
1729906325.159,741.211,-926.758,476.074,-1000.000,0.000
1729906325.163,-818.359,-309.570,-186.035,-1000.000,0.000
1729906325.167,-1000.000,-1000.000,-697.754,116.699,0.000
1729906325.171,246.582,-24.902,-209.473,410.156,0.000
1729906325.174,-809.082,-792.969,456.055,-968.262,0.000
1729906325.178,-94.727,152.344,11.719,-1000.000,0.000
1729906325.182,-1000.000,-1000.000,-686.035,-120.605,0.000
1729906325.186,-231.445,-264.648,-395.020,864.746,0.000
1729906325.190,-818.359,-812.988,395.020,-530.762,0.000
1729906325.194,235.840,345.215,215.332,-1000.000,0.000
1729906325.198,-1000.000,-1000.000,-519.043,-483.887,0.000
1729906325.202,-312.988,-547.363,-583.984,-984.863,0.000
1729906325.206,-825.684,-988.770,143.555,116.211,0.000
1729906325.210,397.949,753.906,391.602,-1000.000,0.000
1729906325.213,-1000.000,-779.297,-361.816,-955.566,0.000
1729906325.217,-773.438,-1000.000,-743.164,562.988,0.000
1729906325.221,833.008,399.902,-55.176,305.176,0.000
1729906325.225,873.047,-857.910,447.266,-1000.000,0.000
1729906325.229,-651.367,-156.738,-240.723,-1000.000,0.000
1729906325.233,-1000.000,-1000.000,-799.805,-26.855,0.000
1729906325.237,64.453,-141.113,-394.531,535.645,0.000
1729906325.241,-807.617,-804.199,349.609,-902.344,0.000
1729906325.245,-26.367,191.895,-64.453,-1000.000,0.000
1729906325.249,-1000.000,-1000.000,-784.668,-151.855,0.000
1729906325.253,-235.840,-337.402,-605.469,975.586,0.000
1729906325.256,-823.730,-840.332,173.828,-353.516,0.000
1729906325.260,243.652,352.539,106.934,-1000.000,0.000
1729906325.264,-1000.000,-1000.000,-697.266,-652.832,0.000
1729906325.268,-520.508,-764.648,-767.578,900.391,0.000
1729906325.272,-911.621,817.871,-4.395,195.312,0.000
1729906325.276,444.824,775.879,274.414,-1000.000,0.000
1729906325.280,-1000.000,-753.906,-472.168,-1000.000,0.000
1729906325.284,-1000.000,-1000.000,-775.879,264.648,0.000
1729906325.288,497.559,144.531,-233.887,315.430,0.000
1729906325.292,968.262,-851.562,291.016,-1000.000,0.000
1729906325.295,-551.270,-115.234,-296.875,-1000.000,0.000
1729906325.299,-1000.000,-1000.000,-798.828,-69.336,0.000
1729906325.303,-104.492,-207.031,-446.777,589.844,0.000
1729906325.307,-821.777,-818.848,285.645,-849.609,0.000
1729906325.311,73.730,217.285,-57.617,-1000.000,0.000
1729906325.315,-1000.000,-1000.000,-758.301,-315.430,0.000
1729906325.319,-242.676,-435.059,-608.398,-988.770,0.000
1729906325.323,-821.777,-885.254,93.750,-183.105,0.000
1729906325.327,243.164,422.852,108.887,-1000.000,0.000
1729906325.331,-1000.000,-1000.000,-573.242,-817.871,0.000
1729906325.335,-625.488,-922.363,-681.641,719.727,0.000
1729906325.338,-978.027,591.309,-24.902,295.410,0.000
1729906325.342,555.176,909.668,374.023,-1000.000,0.000
1729906325.346,-1000.000,-612.305,-314.453,-1000.000,0.000
1729906325.350,-1000.000,-1000.000,-689.453,91.797,0.000
1729906325.354,353.027,48.340,-201.172,260.254,0.000
1729906325.358,-900.879,-844.238,385.254,-1000.000,0.000
1729906325.362,-316.895,18.066,-92.285,-1000.000,0.000
1729906325.366,-1000.000,-1000.000,-714.844,-93.750,0.000
1729906325.370,-206.543,-247.070,-367.188,721.191,0.000
1729906325.374,-827.637,-821.777,395.020,-715.820,0.000
1729906325.377,215.332,256.348,141.113,-1000.000,0.000
1729906325.381,-1000.000,-1000.000,-570.801,-426.270,0.000
1729906325.385,-266.113,-514.648,-573.242,-985.352,0.000
1729906325.389,-877.930,-993.652,123.047,-28.320,0.000
1729906325.393,149.902,453.613,304.199,-1000.000,0.000
1729906325.397,-1000.000,-980.957,-391.602,-940.918,0.000
1729906325.401,-741.699,-1000.000,-650.879,562.012,0.000
1729906325.405,890.625,428.223,-2.441,312.988,0.000
1729906325.409,673.340,-985.352,421.875,-1000.000,0.000
1729906325.413,-890.137,-428.223,-277.344,-1000.000,0.000
1729906325.417,-1000.000,-1000.000,-756.836,29.785,0.000
1729906325.420,109.863,-107.422,-291.504,433.594,0.000
1729906325.424,-838.379,-823.242,375.488,-962.891,0.000
1729906325.428,-172.852,110.352,-61.523,-1000.000,0.000
1729906325.432,-1000.000,-1000.000,-708.496,-112.305,0.000
1729906325.436,-222.656,-310.547,-488.770,836.426,0.000
1729906325.440,-832.031,-838.379,264.160,-565.918,0.000
1729906325.444,244.629,274.902,73.730,-1000.000,0.000
1729906325.448,-1000.000,-1000.000,-642.090,-570.801,0.000
1729906325.452,-484.863,-739.746,-656.250,943.359,0.000
1729906325.456,-894.531,858.887,12.695,42.969,0.000
1729906325.459,316.895,616.211,196.289,-1000.000,0.000
1729906325.463,-1000.000,-912.598,-501.465,-1000.000,0.000
1729906325.467,-975.098,-1000.000,-717.773,288.086,0.000
1729906325.471,570.312,192.871,-219.727,320.312,0.000
1729906325.475,791.016,-931.641,229.980,-1000.000,0.000
1729906325.479,-779.297,-311.523,-334.473,-1000.000,0.000
1729906325.483,-1000.000,-1000.000,-729.492,-57.617,0.000
1729906325.487,-83.008,-188.965,-406.250,476.074,0.000
1729906325.491,-855.469,-835.449,251.953,-915.039,0.000
1729906325.495,-99.121,160.156,-119.141,-1000.000,0.000
1729906325.499,-1000.000,-1000.000,-694.336,-233.398,0.000
1729906325.502,-223.633,-449.219,-601.562,911.133,0.000
1729906325.506,-832.520,-901.367,25.879,-402.344,0.000
1729906325.510,245.605,318.848,40.527,-1000.000,0.000
1729906325.514,-1000.000,-1000.000,-612.305,-751.465,0.000
1729906325.518,-604.004,-872.559,-630.371,775.391,0.000
1729906325.522,-957.031,674.316,-29.785,188.477,0.000
1729906325.526,437.012,758.301,288.574,-1000.000,0.000
1729906325.530,-1000.000,-778.809,-360.840,-1000.000,0.000
1729906325.534,-1000.000,-1000.000,-695.312,228.027,0.000
1729906325.538,353.027,38.574,-203.125,312.012,0.000
1729906325.542,975.098,-871.094,305.176,-1000.000,0.000
1729906325.545,-544.922,-138.184,-247.559,-1000.000,0.000
1729906325.549,-1000.000,-1000.000,-689.941,-70.312,0.000
1729906325.553,-169.922,-220.215,-358.398,603.027,0.000
1729906325.557,-837.891,-826.172,331.543,-843.262,0.000
1729906325.561,88.867,225.098,62.500,-1000.000,0.000
1729906325.565,-1000.000,-1000.000,-598.145,-318.848,0.000
1729906325.569,-241.211,-479.004,-512.695,-958.984,0.000
1729906325.573,-821.289,-910.156,201.172,-107.422,0.000
1729906325.577,242.188,431.641,246.094,-1000.000,0.000
1729906325.581,-1000.000,-1000.000,-462.891,-792.969,0.000
1729906325.584,-642.090,-945.801,-624.023,763.184,0.000
1729906325.588,-986.816,569.336,37.598,297.852,0.000
1729906325.592,547.363,875.977,341.309,-1000.000,0.000
1729906325.596,-975.098,-635.742,-369.629,-1000.000,0.000
1729906325.600,-1000.000,-1000.000,-659.668,190.918,0.000
1729906325.604,207.520,-40.527,-211.914,413.086,0.000
1729906325.608,-890.137,-830.566,370.117,-1000.000,0.000
1729906325.612,-311.523,36.133,-77.637,-1000.000,0.000
1729906325.616,-1000.000,-1000.000,-678.223,-107.422,0.000
1729906325.620,-213.867,-265.625,-445.801,799.316,0.000
1729906325.624,-836.426,-828.125,284.668,-621.094,0.000
1729906325.627,196.777,245.117,27.344,-1000.000,0.000
1729906325.631,-1000.000,-1000.000,-649.902,-412.598,0.000
1729906325.635,-369.141,-620.117,-609.375,-969.727,0.000
1729906325.639,-854.004,982.910,43.945,1.465,0.000
1729906325.643,242.188,501.465,140.137,-1000.000,0.000
1729906325.647,-1000.000,-992.188,-529.785,-946.289,0.000
1729906325.651,-876.465,-1000.000,-660.645,562.012,0.000
1729906325.655,736.328,291.504,-244.629,311.035,0.000
1729906325.659,641.113,980.957,188.477,-1000.000,0.000
1729906325.663,-919.922,-472.168,-312.012,-1000.000,0.000
1729906325.667,-1000.000,-1000.000,-728.516,1.465,0.000
1729906325.670,-3.906,-147.949,-364.746,440.918,0.000
1729906325.674,-898.926,-843.750,230.957,-996.582,0.000
1729906325.678,-255.371,80.078,-182.617,-1000.000,0.000
1729906325.682,-1000.000,-1000.000,-718.750,70.312,0.000
1729906325.686,-213.379,-389.160,-628.906,814.453,0.000
1729906325.690,-842.285,-879.883,61.523,-573.730,0.000
1729906325.694,212.402,260.254,2.930,-1000.000,0.000
1729906325.698,-1000.000,-1000.000,-625.488,-607.910,0.000
1729906325.702,-575.195,-843.750,-616.699,911.621,0.000
1729906325.706,-949.707,735.840,-21.484,62.988,0.000
1729906325.709,271.484,568.848,166.504,-1000.000,0.000
1729906325.713,-1000.000,-948.242,-491.211,-1000.000,0.000
1729906325.717,-1000.000,-1000.000,-679.199,293.457,0.000
1729906325.721,417.969,91.797,-202.637,320.312,0.000
1729906325.725,762.207,-985.352,246.582,-1000.000,0.000
1729906325.729,-816.406,-379.395,-298.828,-1000.000,0.000
1729906325.733,-1000.000,-1000.000,-675.293,-60.547,0.000
1729906325.737,-142.090,-199.707,-388.672,512.695,0.000
1729906325.741,-873.047,-846.680,263.184,-899.414,0.000
1729906325.745,-101.562,134.277,-53.711,-1000.000,0.000
1729906325.749,-1000.000,-1000.000,-621.094,-217.285,0.000
1729906325.752,-221.191,-446.777,-484.375,970.215,0.000
1729906325.756,-833.496,-901.855,187.500,-319.824,0.000
1729906325.760,245.605,321.289,182.617,-1000.000,0.000
1729906325.764,-1000.000,-1000.000,-480.469,-689.453,0.000
1729906325.768,-624.512,-921.387,-576.172,864.258,0.000
1729906325.772,-969.238,615.723,3.906,233.398,0.000
1729906325.776,427.246,730.469,274.902,-1000.000,0.000
1729906325.780,-1000.000,-808.594,-331.055,-1000.000,0.000
1729906325.784,-1000.000,-1000.000,-608.398,267.090,0.000
1729906325.788,309.082,2.441,-166.992,314.453,0.000
1729906325.791,943.848,-883.301,354.004,-1000.000,0.000
1729906325.795,-587.891,-145.020,-148.438,-1000.000,0.000
1729906325.799,-1000.000,-1000.000,-614.746,-81.055,0.000
1729906325.803,-200.684,-253.418,-418.945,654.785,0.000
1729906325.807,-854.492,-841.797,212.891,-794.434,0.000
1729906325.811,71.289,218.750,23.926,-1000.000,0.000
1729906325.815,-1000.000,-1000.000,-574.219,-321.289,0.000
1729906325.819,-298.828,-554.688,-520.508,-958.008,0.000
1729906325.823,-843.750,-964.355,103.516,-102.539,0.000
1729906325.827,242.676,396.973,169.434,-1000.000,0.000
1729906325.831,-1000.000,-1000.000,-462.891,-827.148,0.000
1729906325.834,-800.293,-1000.000,-658.691,719.727,0.000
1729906325.838,843.262,395.508,-160.645,299.805,0.000
1729906325.842,536.133,875.977,262.207,-1000.000,0.000
1729906325.846,-979.980,-634.766,-317.871,-1000.000,0.000
1729906325.850,-1000.000,-1000.000,-672.363,128.418,0.000
1729906325.854,104.980,-101.074,-328.125,369.141,0.000
1729906325.858,-985.352,-866.211,213.867,-1000.000,0.000
1729906325.862,-472.168,-73.242,-253.906,-1000.000,0.000
1729906325.866,-1000.000,-1000.000,-690.918,-101.074,0.000
1729906325.870,-112.793,-240.234,-519.531,720.215,0.000
1729906325.874,-868.164,-877.930,66.406,-698.242,0.000
1729906325.877,98.633,232.422,-56.641,-1000.000,0.000
1729906325.881,-1000.000,-1000.000,-631.348,-474.121,0.000
1729906325.885,-494.629,-755.859,-599.609,991.211,0.000
1729906325.889,-923.828,847.656,19.531,-23.438,0.000
1729906325.893,258.789,432.129,47.363,-1000.000,0.000
1729906325.897,-1000.000,-1000.000,-607.910,-1000.000,0.000
1729906325.901,-983.398,-1000.000,-616.699,443.848,0.000
1729906325.905,579.102,204.590,-184.082,319.336,0.000
1729906325.909,611.816,931.641,214.844,-1000.000,0.000
1729906325.913,-942.383,-533.691,-310.547,-1000.000,0.000
1729906325.916,-1000.000,-1000.000,-666.016,-22.461,0.000
1729906325.920,-63.965,-173.828,-377.441,429.688,0.000
1729906325.924,-914.551,-859.375,158.691,-952.148,0.000
1729906325.928,-257.812,58.105,-198.242,-1000.000,0.000
1729906325.932,-1000.000,-1000.000,-618.164,-121.094,0.000
1729906325.936,-212.891,-400.391,-501.465,874.023,0.000
1729906325.940,-841.797,-887.207,115.234,-513.672,0.000
1729906325.944,227.051,260.742,75.684,-1000.000,0.000
1729906325.948,-1000.000,-1000.000,-528.320,-575.195,0.000
1729906325.952,-598.633,-905.273,-590.332,958.008,0.000
1729906325.956,-960.449,658.691,-22.461,119.629,0.000
1729906325.959,300.293,581.543,239.258,-1000.000,0.000
1729906325.963,-1000.000,-953.613,-372.070,-1000.000,0.000
1729906325.967,-1000.000,-1000.000,-602.539,350.586,0.000
1729906325.971,398.926,71.777,-157.715,320.312,0.000
1729906325.975,788.574,-972.656,310.059,-1000.000,0.000
1729906325.979,-786.133,-351.074,-209.473,-1000.000,0.000
1729906325.983,-1000.000,-1000.000,-643.555,-65.430,0.000
1729906325.987,-156.250,-208.496,-378.418,559.082,0.000
1729906325.991,-869.141,-842.285,304.688,-876.465,0.000
1729906325.995,-68.848,168.457,31.738,-1000.000,0.000
1729906325.428,-172.852,110.352,-61.523,-1000.000,0.000
1729906325.432,-1000.000,-1000.000,-708.496,-112.305,0.000
1729906325.436,-222.656,-310.547,-488.770,836.426,0.000
1729906325.440,-832.031,-838.379,264.160,-565.918,0.000
1729906325.444,244.629,274.902,73.730,-1000.000,0.000
1729906325.448,-1000.000,-1000.000,-642.090,-570.801,0.000
1729906325.452,-484.863,-739.746,-656.250,943.359,0.000
1729906325.456,-894.531,858.887,12.695,42.969,0.000
1729906325.459,316.895,616.211,196.289,-1000.000,0.000
1729906325.463,-1000.000,-912.598,-501.465,-1000.000,0.000
1729906325.467,-975.098,-1000.000,-717.773,288.086,0.000
1729906325.471,570.312,192.871,-219.727,320.312,0.000
1729906325.475,791.016,-931.641,229.980,-1000.000,0.000
1729906325.479,-779.297,-311.523,-334.473,-1000.000,0.000
1729906325.483,-1000.000,-1000.000,-729.492,-57.617,0.000
1729906325.487,-83.008,-188.965,-406.250,476.074,0.000
1729906325.491,-855.469,-835.449,251.953,-915.039,0.000
1729906325.495,-99.121,160.156,-119.141,-1000.000,0.000
1729906325.499,-1000.000,-1000.000,-694.336,-233.398,0.000
1729906325.502,-223.633,-449.219,-601.562,911.133,0.000
1729906325.506,-832.520,-901.367,25.879,-402.344,0.000
1729906325.510,245.605,318.848,40.527,-1000.000,0.000
1729906325.514,-1000.000,-1000.000,-612.305,-751.465,0.000
1729906325.518,-604.004,-872.559,-630.371,775.391,0.000
1729906325.522,-957.031,674.316,-29.785,188.477,0.000
1729906325.526,437.012,758.301,288.574,-1000.000,0.000
1729906325.530,-1000.000,-778.809,-360.840,-1000.000,0.000
1729906325.534,-1000.000,-1000.000,-695.312,228.027,0.000
1729906325.538,353.027,38.574,-203.125,312.012,0.000
1729906325.542,975.098,-871.094,305.176,-1000.000,0.000
1729906325.545,-544.922,-138.184,-247.559,-1000.000,0.000
1729906325.549,-1000.000,-1000.000,-689.941,-70.312,0.000
1729906325.553,-169.922,-220.215,-358.398,603.027,0.000
1729906325.557,-837.891,-826.172,331.543,-843.262,0.000
1729906325.561,88.867,225.098,62.500,-1000.000,0.000
1729906325.565,-1000.000,-1000.000,-598.145,-318.848,0.000
1729906325.569,-241.211,-479.004,-512.695,-958.984,0.000
1729906325.573,-821.289,-910.156,201.172,-107.422,0.000
1729906325.577,242.188,431.641,246.094,-1000.000,0.000
1729906325.581,-1000.000,-1000.000,-462.891,-792.969,0.000
1729906325.584,-642.090,-945.801,-624.023,763.184,0.000
1729906325.588,-986.816,569.336,37.598,297.852,0.000
1729906325.592,547.363,875.977,341.309,-1000.000,0.000
1729906325.596,-975.098,-635.742,-369.629,-1000.000,0.000
1729906325.600,-1000.000,-1000.000,-659.668,190.918,0.000
1729906325.604,207.520,-40.527,-211.914,413.086,0.000
1729906325.608,-890.137,-830.566,370.117,-1000.000,0.000
1729906325.612,-311.523,36.133,-77.637,-1000.000,0.000
1729906325.616,-1000.000,-1000.000,-678.223,-107.422,0.000
1729906325.620,-213.867,-265.625,-445.801,799.316,0.000
1729906325.624,-836.426,-828.125,284.668,-621.094,0.000
1729906325.627,196.777,245.117,27.344,-1000.000,0.000
1729906325.631,-1000.000,-1000.000,-649.902,-412.598,0.000
1729906325.635,-369.141,-620.117,-609.375,-969.727,0.000
1729906325.639,-854.004,982.910,43.945,1.465,0.000
1729906325.643,242.188,501.465,140.137,-1000.000,0.000
1729906325.647,-1000.000,-992.188,-529.785,-946.289,0.000
1729906325.651,-876.465,-1000.000,-660.645,562.012,0.000
1729906325.655,736.328,291.504,-244.629,311.035,0.000
1729906325.659,641.113,980.957,188.477,-1000.000,0.000
1729906325.663,-919.922,-472.168,-312.012,-1000.000,0.000
1729906325.667,-1000.000,-1000.000,-728.516,1.465,0.000
1729906325.670,-3.906,-147.949,-364.746,440.918,0.000
1729906325.674,-898.926,-843.750,230.957,-996.582,0.000
1729906325.678,-255.371,80.078,-182.617,-1000.000,0.000
1729906325.682,-1000.000,-1000.000,-718.750,70.312,0.000
1729906325.686,-213.379,-389.160,-628.906,814.453,0.000
1729906325.690,-842.285,-879.883,61.523,-573.730,0.000
1729906325.694,212.402,260.254,2.930,-1000.000,0.000
1729906325.698,-1000.000,-1000.000,-625.488,-607.910,0.000
1729906325.702,-575.195,-843.750,-616.699,911.621,0.000
1729906325.706,-949.707,735.840,-21.484,62.988,0.000
1729906325.709,271.484,568.848,166.504,-1000.000,0.000
1729906325.713,-1000.000,-948.242,-491.211,-1000.000,0.000
1729906325.717,-1000.000,-1000.000,-679.199,293.457,0.000
1729906325.721,417.969,91.797,-202.637,320.312,0.000
1729906325.725,762.207,-985.352,246.582,-1000.000,0.000
1729906325.729,-816.406,-379.395,-298.828,-1000.000,0.000
1729906325.733,-1000.000,-1000.000,-675.293,-60.547,0.000
1729906325.737,-142.090,-199.707,-388.672,512.695,0.000
1729906325.741,-873.047,-846.680,263.184,-899.414,0.000
1729906325.745,-101.562,134.277,-53.711,-1000.000,0.000
1729906325.749,-1000.000,-1000.000,-621.094,-217.285,0.000
1729906325.752,-221.191,-446.777,-484.375,970.215,0.000
1729906325.756,-833.496,-901.855,187.500,-319.824,0.000
1729906325.760,245.605,321.289,182.617,-1000.000,0.000
1729906325.764,-1000.000,-1000.000,-480.469,-689.453,0.000
1729906325.768,-624.512,-921.387,-576.172,864.258,0.000
1729906325.772,-969.238,615.723,3.906,233.398,0.000
1729906325.776,427.246,730.469,274.902,-1000.000,0.000
1729906325.780,-1000.000,-808.594,-331.055,-1000.000,0.000
1729906325.784,-1000.000,-1000.000,-608.398,267.090,0.000
1729906325.788,309.082,2.441,-166.992,314.453,0.000
1729906325.791,943.848,-883.301,354.004,-1000.000,0.000
1729906325.795,-587.891,-145.020,-148.438,-1000.000,0.000
1729906325.799,-1000.000,-1000.000,-614.746,-81.055,0.000
1729906325.803,-200.684,-253.418,-418.945,654.785,0.000
1729906325.807,-854.492,-841.797,212.891,-794.434,0.000
1729906325.811,71.289,218.750,23.926,-1000.000,0.000
1729906325.815,-1000.000,-1000.000,-574.219,-321.289,0.000
1729906325.819,-298.828,-554.688,-520.508,-958.008,0.000
1729906325.823,-843.750,-964.355,103.516,-102.539,0.000
1729906325.827,242.676,396.973,169.434,-1000.000,0.000
1729906325.831,-1000.000,-1000.000,-462.891,-827.148,0.000
1729906325.834,-800.293,-1000.000,-658.691,719.727,0.000
1729906325.838,843.262,395.508,-160.645,299.805,0.000
1729906325.842,536.133,875.977,262.207,-1000.000,0.000
1729906325.846,-979.980,-634.766,-317.871,-1000.000,0.000
1729906325.850,-1000.000,-1000.000,-672.363,128.418,0.000
1729906325.854,104.980,-101.074,-328.125,369.141,0.000
1729906325.858,-985.352,-866.211,213.867,-1000.000,0.000
1729906325.862,-472.168,-73.242,-253.906,-1000.000,0.000
1729906325.866,-1000.000,-1000.000,-690.918,-101.074,0.000
1729906325.870,-112.793,-240.234,-519.531,720.215,0.000
1729906325.874,-868.164,-877.930,66.406,-698.242,0.000
1729906325.877,98.633,232.422,-56.641,-1000.000,0.000
1729906325.881,-1000.000,-1000.000,-631.348,-474.121,0.000
1729906325.885,-494.629,-755.859,-599.609,991.211,0.000
1729906325.889,-923.828,847.656,19.531,-23.438,0.000
1729906325.893,258.789,432.129,47.363,-1000.000,0.000
1729906325.897,-1000.000,-1000.000,-607.910,-1000.000,0.000
1729906325.901,-983.398,-1000.000,-616.699,443.848,0.000
1729906325.905,579.102,204.590,-184.082,319.336,0.000
1729906325.909,611.816,931.641,214.844,-1000.000,0.000
1729906325.913,-942.383,-533.691,-310.547,-1000.000,0.000
1729906325.916,-1000.000,-1000.000,-666.016,-22.461,0.000
1729906325.920,-63.965,-173.828,-377.441,429.688,0.000
1729906325.924,-914.551,-859.375,158.691,-952.148,0.000
1729906325.928,-257.812,58.105,-198.242,-1000.000,0.000
1729906325.932,-1000.000,-1000.000,-618.164,-121.094,0.000
1729906325.936,-212.891,-400.391,-501.465,874.023,0.000
1729906325.940,-841.797,-887.207,115.234,-513.672,0.000
1729906325.944,227.051,260.742,75.684,-1000.000,0.000
1729906325.948,-1000.000,-1000.000,-528.320,-575.195,0.000
1729906325.952,-598.633,-905.273,-590.332,958.008,0.000
1729906325.956,-960.449,658.691,-22.461,119.629,0.000
1729906325.959,300.293,581.543,239.258,-1000.000,0.000
1729906325.963,-1000.000,-953.613,-372.070,-1000.000,0.000
1729906325.967,-1000.000,-1000.000,-602.539,350.586,0.000
1729906325.971,398.926,71.777,-157.715,320.312,0.000
1729906325.975,788.574,-972.656,310.059,-1000.000,0.000
1729906325.979,-786.133,-351.074,-209.473,-1000.000,0.000
1729906325.983,-1000.000,-1000.000,-643.555,-65.430,0.000
1729906325.987,-156.250,-208.496,-378.418,559.082,0.000
1729906325.991,-869.141,-842.285,304.688,-876.465,0.000
1729906325.995,-68.848,168.457,31.738,-1000.000,0.000
1729906325.999,-1000.000,-1000.000,-538.086,-207.031,0.000
1729906326.002,-224.121,-470.703,-484.375,-981.445,0.000
1729906326.006,-832.031,-912.598,151.855,-247.070,0.000
1729906326.010,241.699,307.617,113.770,-1000.000,0.000
1729906326.014,-1000.000,-1000.000,-523.438,-686.523,0.000
1729906326.018,-696.289,-964.355,-585.449,875.488,0.000
1729906326.022,964.844,547.363,-45.898,243.652,0.000
1729906326.026,408.691,726.562,257.324,-1000.000,0.000
1729906326.030,-1000.000,-802.246,-342.285,-1000.000,0.000
1729906326.034,-1000.000,-1000.000,-643.555,235.840,0.000
1729906326.038,226.562,-43.945,-287.598,310.547,0.000
1729906326.042,837.891,-955.566,214.844,-1000.000,0.000
1729906326.045,-710.449,-266.113,-261.719,-1000.000,0.000
1729906326.049,-1000.000,-1000.000,-642.578,-73.730,0.000
1729906326.053,-191.895,-271.484,-448.730,619.629,0.000
1729906326.057,-878.418,-862.793,130.859,-825.684,0.000
1729906326.061,-20.508,188.477,-108.398,-1000.000,0.000
1729906326.065,-1000.000,-1000.000,-623.535,-355.469,0.000
1729906326.069,-398.926,-678.223,-560.059,-976.562,0.000
1729906326.073,-893.066,918.457,-11.230,-119.629,0.000
1729906326.077,254.395,348.633,-59.082,-1000.000,0.000
1729906326.081,-1000.000,-1000.000,-635.742,-881.348,0.000
1729906326.084,-891.113,-1000.000,-611.816,638.184,0.000
1729906326.088,642.578,289.062,-196.777,308.594,0.000
1729906326.092,390.625,766.602,168.945,-1000.000,0.000
1729906326.096,-994.629,-703.125,-345.215,-1000.000,0.000
1729906326.100,-1000.000,-1000.000,-642.090,98.633,0.000
1729906326.104,5.371,-150.391,-383.301,367.676,0.000
1729906326.108,946.777,-899.902,117.676,-1000.000,0.000
1729906326.112,-508.301,-81.543,-233.398,-1000.000,0.000
1729906326.116,-1000.000,-1000.000,-635.742,-100.098,0.000
1729906326.120,-198.730,-355.957,-476.562,766.113,0.000
1729906326.123,-861.328,-883.301,114.258,-660.156,0.000
1729906326.127,92.285,229.492,7.324,-1000.000,0.000
1729906326.131,-1000.000,-1000.000,-565.918,-457.031,0.000
1729906326.135,-533.691,-818.359,-573.242,-991.211,0.000
1729906326.139,-945.312,766.602,6.836,9.277,0.000
1729906326.143,260.254,479.492,157.227,-1000.000,0.000
1729906326.147,-1000.000,-1000.000,-439.453,-977.051,0.000
1729906326.151,-1000.000,-1000.000,-603.027,509.277,0.000
1729906326.155,492.188,127.441,-193.848,315.430,0.000
1729906326.159,618.652,914.551,245.605,-1000.000,0.000
1729906326.163,-937.012,-536.621,-277.832,-1000.000,0.000
1729906326.166,-1000.000,-1000.000,-639.160,-4.883,0.000
1729906326.170,-106.445,-179.688,-301.758,489.746,0.000
1729906326.174,-913.086,-857.422,270.996,-930.664,0.000
1729906326.178,-232.422,80.078,-69.824,-1000.000,0.000
1729906326.182,-1000.000,-1000.000,-567.871,-135.254,0.000
1729906326.186,-212.402,-427.246,-482.910,932.617,0.000
1729906326.190,-841.797,-897.949,123.535,-423.828,0.000
1729906326.194,222.656,263.672,57.129,-1000.000,0.000
1729906326.198,-1000.000,-1000.000,-539.551,-557.129,0.000
1729906326.202,-612.305,-915.039,-586.426,982.910,0.000
1729906326.206,-968.262,633.789,-46.387,141.113,0.000
1729906326.209,278.809,588.867,151.367,-1000.000,0.000
1729906326.213,-1000.000,-923.340,-424.805,-1000.000,0.000
1729906326.217,-1000.000,-1000.000,-607.422,340.820,0.000
1729906326.221,308.594,12.695,-248.047,319.824,0.000
1729906326.225,728.027,-997.559,185.059,-1000.000,0.000
1729906326.229,-841.797,-364.746,-271.973,-1000.000,0.000
1729906326.233,-1000.000,-1000.000,-608.887,-65.430,0.000
1729906326.237,-183.594,-230.957,-397.461,558.594,0.000
1729906326.241,-900.879,-860.840,171.387,-873.535,0.000
1729906326.245,-124.023,129.395,-108.398,-1000.000,0.000
1729906326.248,-1000.000,-1000.000,-602.051,-234.375,0.000
1729906326.252,-331.543,-614.258,-558.105,-994.141,0.000
1729906326.256,-876.465,970.215,1.465,-252.930,0.000
1729906326.260,250.977,325.195,53.223,-1000.000,0.000
1729906326.264,-1000.000,-1000.000,-515.625,-745.605,0.000
1729906326.268,-828.613,-1000.000,-589.355,804.688,0.000
1729906326.272,805.664,429.688,-136.230,256.348,0.000
1729906326.276,361.816,689.941,135.254,-1000.000,0.000
1729906326.280,-1000.000,-832.031,-397.949,-1000.000,0.000
1729906326.284,-1000.000,-1000.000,-666.992,201.172,0.000
1729906326.288,141.113,-88.379,-353.027,306.152,0.000
1729906326.291,787.598,-963.867,175.781,-1000.000,0.000
1729906326.295,-750.488,-252.930,-251.953,-1000.000,0.000
1729906326.299,-1000.000,-1000.000,-622.559,-80.078,0.000
1729906326.303,-188.965,-306.641,-433.594,651.367,0.000
1729906326.307,-887.695,-877.930,132.812,-793.457,0.000
1729906326.311,-43.457,187.500,-25.879,-1000.000,0.000
1729906326.315,-1000.000,-1000.000,-581.055,-382.324,0.000
1729906326.319,-472.168,-741.699,-584.473,-981.934,0.000
1729906326.323,-930.176,851.562,6.348,-92.773,0.000
1729906326.327,259.277,373.047,90.820,-1000.000,0.000
1729906326.331,-1000.000,-1000.000,-480.469,-895.508,0.000
1729906326.334,-981.934,-1000.000,-575.684,620.605,0.000
1729906326.338,587.402,228.516,-176.270,310.547,0.000
1729906326.342,468.262,743.164,149.414,-1000.000,0.000
