timestamp,tp9,af7,af8,tp10,hr1732318732.035,2.441,65.430,-112.793,-13.672,0.000
1732318732.038,-16.602,78.125,126.953,-30.762,0.000
1732318732.042,0.488,20.508,-56.152,-29.297,0.000
1732318732.045,1.465,23.926,-120.117,-37.598,0.000
1732318732.049,-10.254,38.574,21.484,-32.227,0.000
1732318732.052,-7.324,23.926,2.930,-20.020,0.000
1732318732.056,-8.301,16.113,-85.449,-36.621,0.000
1732318732.059,-18.066,20.020,-99.609,-52.246,0.000
1732318732.062,-24.902,30.273,8.301,-53.223,0.000
1732318732.066,-31.250,35.645,179.688,-49.805,0.000
1732318732.069,-20.508,-0.488,29.785,-36.133,0.000
1732318732.073,-4.883,-20.996,-258.789,-18.555,0.000
1732318732.079,-26.367,31.250,-37.109,-36.621,0.000
1732318732.083,-30.762,38.574,176.270,-47.363,0.000
1732318732.086,-31.250,32.227,142.578,-45.898,0.000
1732318732.090,-23.926,18.066,41.016,-49.805,0.000
1732318732.093,-14.648,0.977,-71.777,-41.992,0.000
1732318732.096,-26.367,16.602,-9.766,-39.062,0.000
1732318732.100,-38.574,18.066,62.012,-40.527,0.000
1732318732.103,-41.992,5.371,-30.762,-52.734,0.000
1732318732.107,-22.949,24.902,-14.648,-56.152,0.000
1732318732.110,-13.184,26.855,103.516,-50.293,0.000
1732318732.114,-10.254,-14.160,-62.988,-36.621,0.000
1732318732.117,-9.766,-4.883,-112.793,-38.086,0.000
1732318732.124,-11.230,27.832,87.402,-50.293,0.000
1732318732.127,-3.906,37.598,125.000,-34.180,0.000
1732318732.131,-11.719,41.992,192.383,-29.785,0.000
1732318732.134,-8.789,11.230,88.379,-26.855,0.000
1732318732.137,1.465,-4.883,-53.223,-33.203,0.000
1732318732.141,-6.348,2.930,9.766,-41.504,0.000
1732318732.144,-18.555,6.836,93.262,-24.414,0.000
1732318732.148,-14.160,-7.812,50.293,-22.461,0.000
1732318732.151,-10.742,-14.160,-25.879,-61.523,0.000
1732318732.155,-14.648,-28.320,-122.559,-59.082,0.000
1732318732.158,-28.809,-9.766,-110.352,-37.109,0.000
1732318732.162,-55.176,48.828,190.918,-63.477,0.000
1732318732.168,-39.551,23.438,170.410,-68.848,0.000
1732318732.172,-29.297,4.395,16.113,-69.336,0.000
1732318732.175,-36.133,12.207,107.422,-55.176,0.000
1732318732.179,-36.621,-8.789,100.098,-23.438,0.000
1732318732.182,-36.621,-7.324,38.574,-48.340,0.000
1732318732.186,-20.508,-23.926,-39.551,-67.383,0.000
1732318732.189,-8.301,-25.391,-10.254,-43.457,0.000
1732318732.193,-20.020,11.230,173.340,-22.461,0.000
1732318732.196,-27.344,12.695,251.465,-31.250,0.000
1732318732.200,3.418,-52.246,-108.887,-23.438,0.000
1732318732.203,2.441,-36.133,-155.762,-28.320,0.000
1732318732.207,-20.020,19.043,164.062,-26.855,0.000
1732318732.213,-9.766,8.789,125.488,-22.949,0.000
1732318732.217,5.371,10.742,89.844,-48.340,0.000
1732318732.220,26.367,-1.465,6.836,-30.762,0.000
1732318732.224,21.973,1.953,18.066,-8.301,0.000
1732318732.227,5.859,26.855,137.695,-18.066,0.000
1732318732.231,-0.488,8.301,48.828,-41.992,0.000
1732318732.234,0.977,-17.090,-100.098,-47.852,0.000
1732318732.238,-14.160,-0.977,6.836,-41.992,0.000
1732318732.241,-17.578,-17.578,78.613,-27.832,0.000
1732318732.245,-18.555,-34.668,-76.172,-34.668,0.000
1732318732.248,-41.016,3.906,37.109,-65.430,0.000
1732318732.252,-33.691,-2.930,148.438,-36.621,0.000
1732318732.258,-36.621,-0.977,185.547,-8.789,0.000
1732318732.261,-37.598,0.488,146.973,-38.574,0.000
1732318732.265,-12.207,-28.320,-98.145,-59.082,0.000
1732318732.268,-0.488,3.906,-56.152,-40.527,0.000
1732318732.272,-18.066,30.762,177.734,-38.574,0.000
1732318732.275,-41.504,-5.859,95.703,-57.129,0.000
1732318732.279,-46.387,-3.906,20.996,-76.660,0.000
1732318732.282,-41.016,21.973,124.023,-84.961,0.000
1732318732.286,-30.762,-15.137,-33.691,-44.922,0.000
1732318732.290,-39.062,-1.465,-59.570,-35.645,0.000
1732318732.293,-46.387,34.180,119.629,-76.172,0.000
1732318732.297,-24.902,5.371,1.465,-73.242,0.000
1732318732.303,-24.414,15.625,64.941,-49.316,0.000
1732318732.306,-29.785,18.066,140.625,-28.320,0.000
1732318732.310,-29.785,8.789,29.785,-43.457,0.000
1732318732.313,-28.320,22.949,34.180,-79.102,0.000
1732318732.317,-23.926,9.277,59.082,-62.012,0.000
1732318732.320,-31.250,6.348,67.871,-35.645,0.000
1732318732.324,-40.527,32.715,122.559,-40.527,0.000
1732318732.328,-21.973,6.348,-15.625,-36.621,0.000
1732318732.331,-0.977,-2.441,-184.082,-26.855,0.000
1732318732.335,-24.902,47.852,102.051,-47.363,0.000
1732318732.338,-33.203,44.922,298.340,-46.875,0.000
1732318732.342,-28.809,29.297,162.109,-63.477,0.000
1732318732.348,-34.668,20.508,101.562,-82.031,0.000
1732318732.351,-37.598,5.859,90.332,-35.645,0.000
1732318732.355,-40.527,14.648,140.137,-25.879,0.000
1732318732.358,-39.551,16.602,141.113,-87.402,0.000
1732318732.362,-26.367,-2.441,76.172,-92.285,0.000
1732318732.366,-17.090,-13.184,18.555,-38.574,0.000
1732318732.369,-42.480,0.488,83.984,-30.762,0.000
1732318732.373,-42.480,-34.668,-71.289,-44.434,0.000
1732318732.376,-28.320,-33.203,-201.660,-52.246,0.000
1732318732.380,-48.340,31.738,136.230,-65.918,0.000
1732318732.383,-55.176,25.879,261.719,-41.992,0.000
1732318732.387,-55.664,11.719,212.891,-51.758,0.000
1732318732.393,-34.668,-11.230,64.453,-69.824,0.000
1732318732.397,-18.066,-16.602,-9.277,-56.641,0.000
1732318732.400,-41.016,21.973,153.809,-45.898,0.000
1732318732.404,-40.527,31.250,263.672,-37.109,0.000
1732318732.407,-15.137,-4.883,123.535,-45.898,0.000
1732318732.411,-9.277,-23.438,-35.156,-43.945,0.000
1732318732.414,-17.090,-16.602,-11.230,-25.879,0.000
1732318732.418,-19.531,-16.602,-68.848,-22.949,0.000
1732318732.421,-42.969,21.973,82.031,-61.035,0.000
1732318732.425,-33.691,24.414,175.781,-69.824,0.000
1732318732.429,-19.043,14.648,150.391,-51.270,0.000
1732318732.432,-20.020,9.766,176.270,-35.156,0.000
1732318732.438,-18.555,-14.160,5.859,-37.109,0.000
1732318732.442,-26.855,-7.812,-58.594,-62.500,0.000
1732318732.445,-35.645,3.906,31.250,-64.941,0.000
1732318732.449,-40.527,-4.395,104.004,-60.547,0.000
1732318732.452,-31.738,-13.184,73.242,-63.965,0.000
1732318732.456,-23.438,-18.066,-89.844,-63.965,0.000
1732318732.459,-13.184,-35.156,-281.738,-28.809,0.000
1732318732.463,-36.621,-11.230,-145.020,-31.738,0.000
1732318732.467,-65.918,24.902,170.898,-81.543,0.000
1732318732.470,-49.316,9.766,61.523,-91.797,0.000
1732318732.474,-31.738,14.160,-23.926,-84.473,0.000
1732318732.477,-28.809,12.207,8.789,-64.453,0.000
1732318732.483,-24.414,18.555,42.969,-47.852,0.000
1732318732.487,-28.320,15.137,36.621,-66.895,0.000
1732318732.490,-27.832,1.953,-115.234,-70.312,0.000
1732318732.494,-26.855,10.254,-72.266,-58.594,0.000
1732318732.497,-37.598,12.207,89.355,-31.250,0.000
1732318732.501,-23.438,-9.277,-29.297,-24.414,0.000
1732318732.505,-8.301,-27.832,-329.102,-55.664,0.000
1732318732.508,-34.668,15.137,-218.750,-62.988,0.000
1732318732.512,-42.969,44.434,60.547,-50.781,0.000
1732318732.515,-36.621,44.434,90.332,-62.500,0.000
1732318732.519,-30.762,29.785,-6.348,-81.055,0.000
1732318732.522,-16.113,-0.488,-168.457,-65.918,0.000
1732318732.530,-34.668,19.531,-95.215,-48.340,0.000
1732318732.534,-43.457,33.203,42.480,-49.316,0.000
1732318732.537,-28.809,4.883,-71.289,-62.012,0.000
1732318732.541,-18.555,-3.418,-121.582,-70.801,0.000
1732318732.545,-12.207,1.465,-41.504,-62.500,0.000
1732318732.548,-25.879,-6.836,-82.031,-46.387,0.000
1732318732.552,-42.969,-20.020,-166.504,-55.176,0.000
1732318732.555,-35.645,-4.883,-99.609,-64.941,0.000
1732318732.559,-26.367,16.602,-61.035,-50.293,0.000
1732318732.563,-37.598,29.297,-26.855,-45.898,0.000
1732318732.566,-33.691,23.926,-29.785,-39.062,0.000
1732318732.570,-5.859,-11.230,-294.922,-58.594,0.000
1732318732.577,-20.508,28.320,-216.309,-88.867,0.000
1732318732.581,-43.945,72.266,84.961,-76.660,0.000
1732318732.584,-42.480,51.270,53.223,-46.875,0.000
1732318732.588,-41.992,44.434,-4.883,-70.801,0.000
1732318732.592,-30.762,26.855,-47.852,-88.379,0.000
1732318732.595,-24.902,20.996,-60.547,-57.617,0.000
1732318732.599,-30.762,30.762,2.441,-44.922,0.000
1732318732.603,-34.180,28.809,-20.020,-55.176,0.000
1732318732.606,-23.438,33.203,-83.984,-64.941,0.000
1732318732.610,-23.926,43.945,60.547,-63.477,0.000
1732318732.613,-36.133,14.648,90.820,-41.016,0.000
1732318732.617,-33.203,-3.418,-116.211,-32.715,0.000
1732318732.624,-37.109,41.504,-18.066,-78.125,0.000
1732318732.628,-32.227,41.016,136.719,-88.379,0.000
1732318732.631,-40.039,32.715,218.750,-65.918,0.000
1732318732.635,-30.762,15.625,203.125,-47.852,0.000
1732318732.639,11.230,-11.230,-15.137,-34.668,0.000
1732318732.642,4.395,-2.930,-110.352,-46.387,0.000
1732318732.646,-50.293,26.855,51.270,-74.707,0.000
1732318732.650,-62.012,26.367,178.223,-83.008,0.000
1732318732.653,-44.434,3.418,67.871,-92.773,0.000
1732318732.657,-47.363,6.836,13.184,-104.004,0.000
1732318732.660,-37.598,-11.719,-149.414,-55.176,0.000
1732318732.664,-52.246,21.484,-104.004,-45.410,0.000
1732318732.671,-70.312,62.012,143.066,-87.402,0.000
1732318732.675,-48.828,30.273,38.574,-93.750,0.000
1732318732.678,-40.527,29.297,52.246,-78.125,0.000
1732318732.682,-45.898,28.809,88.867,-36.621,0.000
1732318732.686,-47.363,16.113,23.438,-31.250,0.000
1732318732.689,-39.062,11.719,-71.289,-69.824,0.000
1732318732.693,-32.715,19.043,-100.098,-72.754,0.000
1732318732.696,-42.969,23.926,-1.953,-52.246,0.000
1732318732.700,-55.176,39.551,142.090,-58.594,0.000
1732318732.704,-37.598,11.719,-5.371,-60.547,0.000
1732318732.707,-24.902,-2.930,-190.430,-57.617,0.000
1732318732.711,-43.945,59.082,101.562,-54.199,0.000
1732318732.718,-41.504,52.246,210.938,-37.109,0.000
1732318732.721,-35.156,12.207,35.156,-54.688,0.000
1732318732.725,-32.227,6.836,-50.293,-72.266,0.000
1732318732.728,-27.832,13.184,-53.711,-49.316,0.000
1732318732.732,-31.250,20.996,36.133,-35.645,0.000
1732318732.736,-20.020,5.859,-6.836,-51.270,0.000
1732318732.739,-13.184,2.441,-93.262,-70.801,0.000
1732318732.743,-10.742,30.273,52.734,-63.965,0.000
1732318732.747,-20.020,39.551,168.945,-39.062,0.000
1732318732.750,-11.230,-21.973,-115.723,-13.184,0.000
1732318732.754,-4.395,-28.320,-220.703,-37.109,0.000
1732318732.758,-28.320,23.438,70.801,-74.219,0.000
1732318732.764,-39.062,18.555,174.316,-66.406,0.000
1732318732.768,-37.109,7.324,208.008,-56.641,0.000
1732318732.772,-18.066,-22.461,7.324,-54.688,0.000
1732318732.775,-15.137,-27.344,-112.305,-61.523,0.000
1732318732.779,-28.320,-9.277,29.297,-51.270,0.000
1732318732.783,-35.645,-19.043,68.359,-37.598,0.000
1732318732.786,-31.250,-33.691,-52.734,-46.875,0.000
1732318732.790,-19.531,-20.996,-104.004,-48.340,0.000
1732318732.794,-41.504,-19.531,-69.336,-36.621,0.000
1732318732.797,-60.547,-19.043,-30.273,-33.203,0.000
1732318732.801,-66.895,9.277,103.516,-69.824,0.000
1732318732.805,-53.711,-2.441,64.941,-73.730,0.000
1732318732.811,-44.434,-4.883,42.480,-45.410,0.000
1732318732.814,-43.945,-5.371,131.836,-26.367,0.000
1732318732.818,-36.133,-23.438,8.789,-13.184,0.000
1732318732.822,-27.832,-8.301,-87.891,-50.781,0.000
1732318732.825,-25.879,9.766,-3.418,-76.660,0.000
1732318732.829,-33.203,-0.977,19.531,-44.922,0.000
1732318732.833,-41.504,6.348,63.477,-52.246,0.000
1732318732.836,-34.668,5.859,37.109,-79.590,0.000
1732318732.840,-7.812,-26.367,-206.055,-48.828,0.000
1732318732.844,-10.742,6.836,-131.836,-34.180,0.000
1732318732.847,-33.691,48.340,206.543,-59.570,0.000
1732318732.851,-29.297,13.672,105.469,-61.035,0.000
1732318732.857,-19.043,15.137,23.926,-56.152,0.000
1732318732.861,-13.672,26.367,54.199,-41.016,0.000
1732318732.864,-29.785,21.484,78.613,-31.738,0.000
1732318732.868,-54.688,20.508,108.887,-49.316,0.000
1732318732.872,-48.340,-4.883,-5.371,-66.895,0.000
1732318732.875,-30.273,-12.695,-85.449,-36.621,0.000
1732318732.879,-33.691,5.859,4.395,-25.391,0.000
1732318732.883,-29.297,-17.090,-27.832,-26.367,0.000
1732318732.886,-19.531,-28.320,-199.707,-26.855,0.000
1732318732.890,-36.133,35.645,2.441,-41.016,0.000
1732318732.894,-33.691,36.621,183.105,-29.297,0.000
1732318732.897,-35.156,26.367,172.852,-46.875,0.000
1732318732.903,-50.293,32.227,150.879,-82.520,0.000
1732318732.907,-37.598,13.184,14.648,-71.777,0.000
1732318732.911,-37.598,23.438,79.102,-62.988,0.000
1732318732.914,-55.664,38.086,214.844,-68.359,0.000
1732318732.918,-43.945,16.602,86.426,-64.453,0.000
1732318732.922,-15.625,-2.441,-107.422,-70.801,0.000
1732318732.925,-24.414,31.250,-0.488,-73.242,0.000
1732318732.929,-25.391,9.766,-53.223,-30.762,0.000
1732318732.933,-40.039,16.113,-94.238,-44.922,0.000
1732318732.936,-53.223,64.453,156.738,-109.863,0.000
1732318732.940,-48.340,52.246,182.617,-105.469,0.000
1732318732.944,-75.684,51.270,208.496,-94.238,0.000
1732318732.949,-91.309,23.926,77.637,-116.211,0.000
1732318732.953,-90.332,10.254,-139.160,-142.090,0.000
1732318732.957,-84.961,47.852,-49.316,-150.391,0.000
1732318732.960,-117.188,53.223,125.000,-153.320,0.000
1732318732.964,-141.113,30.762,93.750,-157.715,0.000
1732318732.968,-145.020,0.000,-134.766,-174.805,0.000
1732318732.972,-157.227,-16.602,-274.414,-200.195,0.000
1732318732.975,-179.688,-0.488,-283.203,-208.496,0.000
1732318732.979,-217.285,57.129,-36.133,-237.305,0.000
1732318732.983,-231.445,59.082,79.102,-264.648,0.000
1732318732.986,-212.402,23.438,-59.082,-259.277,0.000
1732318732.990,-217.285,30.762,2.441,-260.742,0.000
1732318732.996,-222.168,43.945,27.344,-243.652,0.000
1732318732.999,-218.262,29.297,-11.230,-240.234,0.000
1732318733.003,-211.914,25.879,-22.949,-270.508,0.000
1732318733.007,-189.453,6.836,-37.109,-256.348,0.000
1732318733.010,-196.777,-95.703,21.973,-220.215,0.000
1732318733.014,-208.008,-246.094,46.387,-219.727,0.000
1732318733.018,-175.781,-492.188,-204.590,-215.332,0.000
1732318733.021,-157.227,-765.137,-209.961,-208.008,0.000
1732318733.025,-154.297,-936.523,148.926,-187.500,0.000
1732318733.029,-126.465,-1000.000,183.594,-143.555,0.000
1732318733.032,-107.910,-784.180,119.629,-134.766,0.000
1732318733.036,-91.797,-290.527,9.277,-124.023,0.000
1732318733.042,-71.289,57.129,-32.715,-97.168,0.000
1732318733.045,-62.012,297.363,125.488,-77.637,0.000
1732318733.049,-37.598,446.289,136.719,-74.219,0.000
1732318733.053,-3.418,541.992,-8.789,-72.754,0.000
1732318733.056,5.859,621.094,0.977,-42.969,0.000
1732318733.060,9.277,657.227,50.781,-11.719,0.000
1732318733.064,24.414,655.273,-166.504,5.859,0.000
1732318733.067,24.414,701.172,-177.734,-17.090,0.000
1732318733.071,24.902,749.512,51.758,-17.090,0.000
1732318733.075,28.320,777.832,193.359,13.184,0.000
1732318733.079,22.949,778.809,249.512,14.648,0.000
1732318733.082,34.180,716.797,-1.465,2.441,0.000
1732318733.088,33.691,724.121,-47.363,-11.230,0.000
1732318733.091,21.973,761.719,192.383,0.977,0.000
1732318733.095,23.926,730.469,173.828,29.297,0.000
1732318733.099,15.137,699.707,52.734,14.648,0.000
1732318733.102,18.066,677.246,-10.254,0.488,0.000
1732318733.106,23.438,628.906,-52.246,24.414,0.000
1732318733.110,19.531,607.422,-3.906,31.738,0.000
1732318733.114,16.602,611.816,109.863,-1.953,0.000
1732318733.117,22.461,604.004,75.195,-24.414,0.000
1732318733.121,21.484,610.352,50.293,-14.648,0.000
1732318733.125,21.484,579.102,68.359,13.184,0.000
1732318733.128,24.414,518.066,-129.395,29.297,0.000
1732318733.135,19.531,541.016,-172.852,-18.555,0.000
1732318733.139,24.902,563.477,-26.367,-25.391,0.000
1732318733.142,20.020,546.387,29.785,3.418,0.000
1732318733.146,5.859,540.527,64.941,-5.371,0.000
1732318733.150,12.695,477.539,-89.844,-5.859,0.000
1732318733.154,23.926,427.246,-264.160,-14.648,0.000
1732318733.157,7.324,453.613,-124.023,-11.230,0.000
1732318733.161,-4.395,452.637,34.180,-1.465,0.000
1732318733.165,-2.930,420.898,27.344,-21.973,0.000
1732318733.168,2.441,404.297,28.320,-37.598,0.000
1732318733.172,19.043,371.582,-73.730,-0.488,0.000
1732318733.176,0.488,366.211,-151.855,23.926,0.000
1732318733.182,-19.043,404.785,2.441,-5.371,0.000
1732318733.186,6.348,377.930,-14.648,-26.367,0.000
1732318733.190,12.207,381.348,-0.977,-37.109,0.000
1732318733.194,-6.836,379.395,108.887,-27.832,0.000
1732318733.197,-7.812,313.965,-16.113,-16.602,0.000
1732318733.201,0.977,272.461,-158.691,-35.645,0.000
1732318733.205,-8.301,283.203,-93.750,-34.180,0.000
1732318733.208,-17.090,291.504,31.738,-10.254,0.000
1732318733.212,-18.066,288.086,100.586,-17.090,0.000
1732318733.216,-12.695,243.164,34.180,-37.598,0.000
1732318733.219,9.277,156.738,-285.156,-22.461,0.000
1732318733.223,-12.695,207.031,-189.941,-20.508,0.000
1732318733.229,-35.156,262.695,151.855,-29.785,0.000
1732318733.233,-20.996,202.148,5.371,-29.297,0.000
1732318733.237,-22.949,215.332,22.461,-54.688,0.000
1732318733.241,-20.020,216.309,58.105,-40.039,0.000
1732318733.244,-21.484,195.312,3.418,-11.230,0.000
1732318733.248,-25.391,191.895,-10.254,-19.043,0.000
1732318733.252,-5.859,174.316,-114.258,-34.668,0.000
1732318733.255,-0.977,177.734,-87.891,-35.645,0.000
1732318733.259,-25.391,206.055,144.043,-39.062,0.000
1732318733.263,-20.996,160.645,91.797,-29.785,0.000
1732318733.267,-8.789,102.539,-264.160,-23.926,0.000
1732318733.270,-28.809,184.082,-40.039,-55.664,0.000
1732318733.276,-27.344,192.871,210.449,-45.898,0.000
1732318733.280,-27.344,160.645,170.898,-36.133,0.000
1732318733.284,-23.438,155.762,91.309,-67.383,0.000
1732318733.288,-0.488,119.141,-133.301,-56.641,0.000
1732318733.291,-11.719,133.789,-89.844,-34.668,0.000
1732318733.295,-20.996,128.418,1.465,-31.250,0.000
1732318733.299,-25.879,96.680,-100.586,-42.480,0.000
1732318733.303,-29.297,107.910,-143.066,-68.848,0.000
1732318733.306,-24.414,126.953,-14.648,-64.453,0.000
1732318733.310,-16.113,70.312,-131.348,-13.672,0.000
1732318733.314,-27.832,69.824,-183.594,-20.508,0.000
1732318733.317,-37.598,107.910,22.949,-64.453,0.000
1732318733.323,-22.461,81.543,20.996,-60.059,0.000
1732318733.327,-25.391,105.469,108.398,-42.480,0.000
1732318733.331,-21.973,74.219,21.484,-37.598,0.000
1732318733.335,-13.184,33.691,-175.293,-55.176,0.000
1732318733.338,-11.719,62.500,-117.188,-62.012,0.000
1732318733.342,-19.531,63.965,-45.410,-40.039,0.000
1732318733.346,-37.109,52.734,-37.109,-29.297,0.000
1732318733.349,-33.203,43.457,-110.840,-35.645,0.000
1732318733.353,-7.324,18.555,-238.770,-30.762,0.000
1732318733.357,-5.371,4.883,-292.969,-12.695,0.000
1732318733.361,-52.734,70.312,-39.551,-39.062,0.000
1732318733.364,-72.266,83.496,76.172,-74.219,0.000
1732318733.370,-58.594,52.246,-54.199,-99.121,0.000
1732318733.374,-58.105,62.012,20.020,-93.750,0.000
1732318733.378,-40.039,37.598,-7.812,-46.875,0.000
1732318733.381,-30.762,33.691,-45.898,-40.039,0.000
1732318733.385,-27.832,38.086,-40.039,-62.500,0.000
1732318733.389,-24.902,-3.906,-168.457,-59.570,0.000
1732318733.393,-41.992,-10.742,-76.660,-46.875,0.000
1732318733.396,-50.781,-0.977,43.945,-53.223,0.000
1732318733.400,-23.926,-61.523,-264.648,-46.387,0.000
1732318733.404,-27.344,-41.016,-316.895,-53.223,0.000
1732318733.407,-63.965,34.180,55.664,-61.035,0.000
1732318733.411,-72.754,21.484,120.605,-62.012,0.000
1732318733.417,-61.523,-3.906,-28.320,-86.914,0.000
1732318733.421,-41.992,-20.508,-166.992,-78.613,0.000
1732318733.424,-41.992,15.137,-59.570,-73.242,0.000
1732318733.428,-60.547,62.988,122.070,-64.941,0.000
1732318733.432,-58.594,31.738,42.969,-57.129,0.000
1732318733.436,-38.086,-15.137,-187.988,-78.613,0.000
1732318733.439,-43.457,27.344,-143.066,-78.125,0.000
1732318733.443,-46.875,23.438,-51.270,-39.551,0.000
1732318733.447,-43.457,-5.371,-211.426,-50.781,0.000
1732318733.451,-51.758,55.664,-141.113,-110.352,0.000
1732318733.454,-40.039,62.988,-19.043,-101.562,0.000
1732318733.458,-35.156,66.406,48.340,-75.195,0.000
1732318733.464,-57.129,69.336,103.027,-76.172,0.000
1732318733.467,-51.270,29.297,-104.004,-74.219,0.000
1732318733.471,-34.180,36.133,-199.707,-74.219,0.000
1732318733.475,-41.504,66.406,-50.781,-68.848,0.000
1732318733.478,-43.457,57.129,21.973,-59.082,0.000
1732318733.482,-36.621,38.086,-98.633,-69.824,0.000
1732318733.486,-33.691,44.434,-159.180,-76.660,0.000
1732318733.490,-26.855,10.254,-224.121,-43.457,0.000
1732318733.493,-51.758,28.809,-152.832,-40.527,0.000
1732318733.497,-79.590,76.660,70.312,-86.914,0.000
1732318733.501,-60.547,40.039,-50.293,-102.051,0.000
1732318733.505,-52.246,46.387,-44.434,-106.934,0.000
1732318733.510,-54.199,40.039,21.484,-82.520,0.000
1732318733.514,-55.176,34.668,-10.742,-69.824,0.000
1732318733.518,-57.617,54.199,-45.410,-85.449,0.000
1732318733.521,-58.105,55.664,-44.922,-83.008,0.000
1732318733.525,-61.035,41.992,-24.902,-70.312,0.000
1732318733.529,-45.410,16.602,-104.980,-56.152,0.000
1732318733.533,-41.504,-9.766,-237.305,-71.777,0.000
1732318733.536,-49.316,-22.949,-385.254,-68.848,0.000
1732318733.540,-64.453,53.223,-148.438,-55.176,0.000
1732318733.544,-69.336,81.055,83.984,-49.805,0.000
1732318733.547,-58.594,36.133,-68.359,-60.547,0.000
1732318733.551,-48.340,35.156,-144.043,-84.961,0.000
1732318733.557,-43.945,37.109,-180.176,-62.988,0.000
1732318733.560,-53.711,60.547,-123.047,-41.992,0.000
1732318733.564,-55.664,92.773,-29.785,-66.895,0.000
1732318733.568,-37.598,82.031,-118.164,-83.008,0.000
1732318733.572,-29.297,62.500,-164.062,-78.125,0.000
1732318733.575,-41.016,44.434,-153.320,-60.059,0.000
1732318733.579,-42.969,-11.230,-347.168,-29.297,0.000
1732318733.583,-55.664,4.883,-386.719,-52.246,0.000
1732318733.587,-52.246,92.285,-118.652,-97.656,0.000
1732318733.590,-21.973,76.660,-108.398,-48.340,0.000
1732318733.594,-16.602,71.289,-53.223,-25.879,0.000
1732318733.598,-24.902,50.781,-78.125,-50.293,0.000
1732318733.603,-40.039,29.297,-188.965,-65.918,0.000
1732318733.607,-55.176,62.988,-57.129,-71.777,0.000
1732318733.611,-58.105,65.918,26.855,-60.547,0.000
1732318733.614,-50.293,46.387,-25.879,-51.758,0.000
1732318733.618,-27.832,0.488,-154.297,-62.012,0.000
1732318733.622,-18.555,-34.180,-208.984,-52.734,0.000
1732318733.626,-27.344,-47.363,-286.621,-23.438,0.000
1732318733.629,-54.688,-3.906,-181.641,-56.152,0.000
1732318733.633,-58.594,31.250,-35.156,-99.121,0.000
1732318733.637,-43.945,23.926,-59.570,-93.262,0.000
1732318733.641,-56.641,39.062,52.734,-70.801,0.000
1732318733.644,-55.176,12.695,-46.387,-54.199,0.000
1732318733.649,-42.969,-19.531,-254.883,-62.988,0.000
1732318733.653,-41.504,5.859,-215.332,-79.102,0.000
1732318733.657,-45.898,45.410,-47.363,-74.707,0.000
1732318733.661,-57.129,51.270,26.855,-72.754,0.000
1732318733.664,-60.059,28.320,-81.543,-83.984,0.000
1732318733.668,-43.945,-9.766,-300.293,-82.520,0.000
1732318733.672,-46.387,21.973,-248.535,-83.008,0.000
1732318733.676,-60.059,79.102,24.902,-83.984,0.000
1732318733.679,-46.875,67.871,12.695,-83.496,0.000
1732318733.683,-49.316,48.828,-147.949,-87.402,0.000
1732318733.687,-62.012,60.059,-102.051,-74.707,0.000
1732318733.691,-51.758,46.387,-201.172,-46.387,0.000
1732318733.697,-56.641,57.617,-260.254,-69.824,0.000
1732318733.701,-59.082,67.383,-209.961,-103.027,0.000
1732318733.704,-42.480,56.641,-279.785,-83.496,0.000
1732318733.708,-46.875,59.082,-232.910,-58.105,0.000
1732318733.712,-46.387,36.621,-275.879,-43.457,0.000
1732318733.716,-35.645,20.020,-378.418,-53.711,0.000
1732318733.719,-53.223,31.250,-398.926,-84.473,0.000
1732318733.723,-63.477,52.246,-310.059,-74.219,0.000
1732318733.727,-62.988,74.707,-150.391,-56.152,0.000
1732318733.731,-59.082,75.195,-133.301,-91.309,0.000
1732318733.734,-37.109,21.973,-362.305,-91.309,0.000
1732318733.738,-50.781,18.555,-401.367,-72.266,0.000
1732318733.744,-81.055,99.609,-98.145,-90.332,0.000
1732318733.748,-70.801,83.008,-101.074,-91.797,0.000
1732318733.752,-55.664,53.223,-255.371,-98.633,0.000
1732318733.756,-57.129,86.914,-165.039,-106.445,0.000
1732318733.759,-66.406,83.984,-131.348,-84.961,0.000
1732318733.763,-71.289,52.246,-264.160,-75.684,0.000
1732318733.767,-62.500,34.180,-343.262,-93.750,0.000
1732318733.771,-62.012,42.480,-310.059,-107.910,0.000
1732318733.774,-72.266,86.914,-129.395,-107.910,0.000
1732318733.778,-63.477,89.355,-59.082,-91.797,0.000
1732318733.782,-42.969,-7.324,-375.488,-62.988,0.000
1732318733.786,-33.203,11.719,-433.105,-70.312,0.000
1732318733.791,-48.828,100.098,-101.074,-107.422,0.000
1732318733.795,-65.918,79.590,-25.879,-101.562,0.000
1732318733.799,-63.965,59.570,-93.750,-93.262,0.000
1732318733.803,-49.805,35.645,-224.609,-88.867,0.000
1732318733.806,-43.945,26.855,-254.395,-79.590,0.000
1732318733.810,-52.246,35.645,-173.828,-69.824,0.000
1732318733.814,-52.734,31.250,-196.777,-68.359,0.000
1732318733.818,-40.039,28.320,-288.574,-76.660,0.000
1732318733.822,-52.734,60.547,-168.457,-91.309,0.000
1732318733.825,-59.082,25.879,-143.066,-80.566,0.000
1732318733.829,-53.711,-20.996,-341.797,-73.242,0.000
1732318733.833,-77.637,34.668,-209.961,-105.469,0.000
1732318733.838,-70.801,34.180,-85.938,-114.258,0.000
1732318733.842,-71.777,26.855,-84.473,-91.797,0.000
1732318733.846,-91.309,40.039,-26.367,-90.332,0.000
1732318733.850,-75.684,8.301,-175.293,-114.258,0.000
1732318733.854,-60.059,4.395,-256.348,-112.793,0.000
1732318733.857,-65.918,29.785,-126.465,-88.379,0.000
1732318733.861,-68.359,24.902,-100.586,-61.523,0.000
1732318733.865,-60.547,24.902,-108.887,-78.613,0.000
1732318733.869,-75.195,38.574,-88.379,-110.840,0.000
1732318733.872,-64.453,-11.230,-333.496,-85.938,0.000
1732318733.876,-67.383,22.949,-266.113,-71.289,0.000
1732318733.880,-80.078,60.059,-10.742,-91.797,0.000
1732318733.885,-62.012,15.137,-196.289,-107.422,0.000
1732318733.889,-62.012,52.246,-109.863,-111.816,0.000
1732318733.893,-61.523,39.062,-41.016,-83.008,0.000
1732318733.897,-73.730,19.531,-96.191,-87.891,0.000
1732318733.900,-73.242,27.832,-90.820,-99.609,0.000
1732318733.904,-56.152,-3.906,-233.887,-92.773,0.000
1732318733.908,-66.895,2.930,-211.914,-94.727,0.000
1732318733.912,-65.918,13.184,-102.539,-84.473,0.000
1732318733.916,-47.363,-28.809,-204.102,-86.914,0.000
1732318733.919,-40.039,-41.504,-377.441,-84.961,0.000
1732318733.923,-48.828,33.203,-100.586,-86.914,0.000
1732318733.927,-58.594,43.945,156.250,-97.168,0.000
1732318733.932,-62.500,15.137,86.914,-101.074,0.000
1732318733.936,-50.293,2.441,25.391,-112.793,0.000
1732318733.940,-36.133,-41.992,-136.719,-93.262,0.000
1732318733.944,-53.223,-31.738,-133.301,-72.754,0.000
1732318733.947,-63.477,-0.488,29.785,-94.238,0.000
1732318733.951,-45.410,-49.316,-147.949,-102.051,0.000
1732318733.955,-80.566,-37.109,-157.227,-89.355,0.000
1732318733.959,-110.352,-4.883,96.191,-88.379,0.000
1732318733.962,-89.355,-82.031,-140.625,-83.496,0.000
1732318733.966,-101.562,-99.121,-369.141,-107.910,0.000
1732318733.970,-108.398,-30.762,-117.676,-150.879,0.000
1732318733.974,-105.957,-24.902,30.762,-126.465,0.000
1732318733.979,-112.305,-27.344,99.121,-118.652,0.000
1732318733.983,-94.727,-62.500,-36.621,-136.230,0.000
1732318733.987,-86.914,-88.379,-225.586,-148.438,0.000
1732318733.990,-98.633,-52.734,-104.004,-154.785,0.000
1732318733.994,-102.539,-55.176,-27.344,-132.812,0.000
1732318733.998,-76.172,-89.355,-229.004,-123.047,0.000
1732318734.002,-77.637,-65.430,-275.391,-139.160,0.000
1732318734.005,-68.848,-64.453,-192.383,-119.629,0.000
1732318734.009,-68.848,-79.102,-235.840,-107.910,0.000
1732318734.013,-101.074,-28.320,-81.543,-150.879,0.000
1732318734.017,-62.988,-26.855,-13.184,-166.016,0.000
1732318734.021,-63.477,-36.621,-53.223,-159.668,0.000
1732318734.026,-117.188,-24.414,38.574,-143.555,0.000
1732318734.030,-94.238,-44.434,-38.574,-119.629,0.000
1732318734.033,-80.078,-63.965,-165.527,-127.930,0.000
1732318734.037,-62.988,-52.246,-152.832,-143.066,0.000
1732318734.041,-41.504,-38.086,-53.223,-130.859,0.000
1732318734.045,-78.125,-43.945,-27.832,-114.258,0.000
1732318734.048,-72.266,-44.922,-81.055,-128.906,0.000
1732318734.052,-34.180,-81.543,-298.828,-115.723,0.000
1732318734.056,-38.086,-72.266,-316.895,-102.051,0.000
1732318734.060,-70.312,0.977,2.441,-130.371,0.000
1732318734.064,-59.570,13.184,50.781,-127.441,0.000
1732318734.067,-31.738,15.625,-7.812,-131.836,0.000
1732318734.072,-31.250,5.859,-36.621,-130.859,0.000
1732318734.076,-30.762,-4.883,-40.039,-106.445,0.000
1732318734.080,-43.945,15.137,17.090,-133.789,0.000
1732318734.084,-26.367,9.277,-31.738,-150.879,0.000
1732318734.088,6.348,2.930,-89.844,-134.277,0.000
1732318734.091,-19.043,16.602,-61.523,-129.883,0.000
1732318734.095,-34.180,16.113,-47.363,-130.859,0.000
1732318734.099,-13.672,-5.859,-205.078,-132.324,0.000
1732318734.103,-6.836,44.922,-77.637,-149.902,0.000
1732318734.106,2.441,78.613,218.750,-137.695,0.000
1732318734.110,26.367,63.965,289.551,-105.469,0.000
1732318734.114,49.316,26.367,187.012,-99.609,0.000
1732318734.119,75.684,-6.348,28.320,-102.051,0.000
1732318734.123,90.332,31.250,212.402,-110.352,0.000
1732318734.127,100.098,78.125,452.637,-106.445,0.000
1732318734.130,123.535,81.055,438.965,-108.887,0.000
1732318734.134,148.926,84.473,368.164,-119.629,0.000
1732318734.138,158.203,114.746,388.184,-106.934,0.000
1732318734.142,150.391,101.562,315.430,-77.637,0.000
1732318734.145,136.719,122.559,327.148,-97.656,0.000
1732318734.149,151.367,170.898,475.098,-139.648,0.000
1732318734.153,187.500,157.715,444.336,-120.117,0.000
1732318734.157,194.336,178.711,475.098,-104.004,0.000
1732318734.161,198.730,178.711,467.773,-98.633,0.000
1732318734.166,212.891,169.434,422.363,-91.797,0.000
1732318734.169,220.215,173.828,428.223,-100.098,0.000
1732318734.173,222.656,147.461,416.992,-96.680,0.000
1732318734.177,213.867,145.996,415.039,-83.984,0.000
1732318734.181,206.055,154.297,446.777,-96.191,0.000
1732318734.184,228.516,99.121,274.902,-113.281,0.000
1732318734.188,244.629,41.016,-40.527,-86.426,0.000
1732318734.192,216.309,75.195,124.512,-76.172,0.000
1732318734.196,195.801,82.520,392.578,-105.469,0.000
1732318734.200,201.660,37.109,254.395,-118.652,0.000
1732318734.203,198.242,30.762,220.215,-112.793,0.000
1732318734.207,196.289,-5.371,169.434,-89.844,0.000
1732318734.212,193.848,-37.109,54.688,-83.496,0.000
1732318734.216,177.246,-46.387,30.762,-104.980,0.000
1732318734.220,164.551,-78.613,-58.594,-105.957,0.000
1732318734.223,145.996,-93.750,-20.020,-88.867,0.000
1732318734.227,131.836,-102.539,24.902,-90.820,0.000
1732318734.231,129.395,-153.809,-208.984,-102.539,0.000
1732318734.235,127.441,-179.688,-379.883,-117.188,0.000
1732318734.239,95.215,-158.203,-217.773,-120.117,0.000
1732318734.242,60.547,-160.645,-94.727,-105.957,0.000
1732318734.246,60.059,-191.406,-218.262,-107.422,0.000
1732318734.250,42.480,-213.867,-329.590,-121.094,0.000
1732318734.254,30.273,-239.746,-430.664,-91.309,0.000
1732318734.259,17.578,-204.102,-293.457,-85.449,0.000
1732318734.263,-9.766,-197.266,-163.086,-118.652,0.000
1732318734.267,-19.531,-253.418,-371.582,-127.441,0.000
1732318734.271,-22.461,-252.930,-390.137,-112.793,0.000
1732318734.275,-22.949,-251.465,-320.801,-79.590,0.000
1732318734.278,-20.020,-280.273,-407.227,-87.891,0.000
1732318734.282,-36.621,-293.457,-470.215,-117.188,0.000
1732318734.286,-52.246,-296.875,-461.426,-102.051,0.000
1732318734.290,-61.035,-291.992,-412.109,-75.195,0.000
1732318734.294,-81.543,-268.066,-257.324,-93.750,0.000
1732318734.297,-82.520,-304.688,-341.797,-93.750,0.000
1732318734.301,-80.078,-334.473,-474.121,-83.984,0.000
1732318734.307,-115.723,-285.156,-255.859,-92.773,0.000
1732318734.311,-115.723,-273.438,-158.203,-80.078,0.000
1732318734.314,-102.539,-271.484,-208.984,-92.285,0.000
1732318734.318,-85.938,-294.922,-288.086,-110.352,0.000
1732318734.322,-70.801,-312.988,-363.281,-91.797,0.000
1732318734.326,-69.824,-280.762,-360.840,-62.988,0.000
1732318734.330,-72.266,-229.492,-239.258,-73.242,0.000
1732318734.333,-95.703,-214.844,-203.125,-107.422,0.000
1732318734.337,-107.910,-199.707,-195.312,-116.211,0.000
1732318734.341,-99.609,-164.551,-33.203,-90.820,0.000
1732318734.345,-85.938,-223.145,-241.211,-71.777,0.000
1732318734.348,-87.891,-241.699,-469.238,-86.914,0.000
1732318734.354,-106.445,-174.805,-167.480,-106.445,0.000
1732318734.358,-104.980,-175.781,-12.695,-107.910,0.000
1732318734.362,-106.445,-182.129,45.898,-116.211,0.000
1732318734.365,-103.516,-215.820,-80.078,-116.211,0.000
1732318734.369,-82.520,-235.352,-258.789,-114.258,0.000
1732318734.373,-96.191,-206.543,-175.781,-115.723,0.000
1732318734.377,-113.281,-202.148,-115.234,-102.051,0.000
1732318734.380,-117.188,-214.844,-130.859,-110.352,0.000
1732318734.384,-122.559,-192.383,-98.145,-136.230,0.000
1732318734.388,-107.422,-196.777,-158.691,-106.445,0.000
1732318734.392,-100.586,-200.195,-255.371,-78.125,0.000
1732318734.396,-116.211,-148.438,-63.965,-109.375,0.000
1732318734.401,-112.793,-160.645,-27.832,-130.371,0.000
1732318734.405,-107.910,-161.133,-80.078,-127.930,0.000
1732318734.409,-111.816,-154.785,-51.270,-103.516,0.000
1732318734.412,-109.863,-162.598,-113.281,-93.750,0.000
1732318734.416,-97.168,-164.062,-164.551,-117.676,0.000
1732318734.420,-73.730,-173.340,-249.512,-122.559,0.000
1732318734.424,-77.148,-150.391,-208.984,-109.375,0.000
1732318734.428,-91.309,-111.816,-24.902,-105.957,0.000
1732318734.431,-87.402,-117.188,-32.715,-109.863,0.000
1732318734.435,-62.500,-193.359,-375.000,-92.773,0.000
1732318734.439,-69.336,-167.480,-385.742,-94.727,0.000
1732318734.443,-93.750,-88.867,-44.434,-102.051,0.000
1732318734.448,-93.262,-114.746,-86.426,-80.078,0.000
1732318734.452,-91.797,-133.789,-193.848,-102.539,0.000
1732318734.456,-77.637,-143.555,-265.625,-116.699,0.000
1732318734.459,-86.914,-129.883,-233.887,-95.215,0.000
1732318734.463,-91.797,-113.281,-165.039,-79.590,0.000
1732318734.467,-62.988,-145.996,-337.402,-99.609,0.000
1732318734.471,-70.801,-141.113,-393.066,-125.000,0.000
1732318734.475,-91.309,-97.168,-214.355,-102.539,0.000
1732318734.478,-95.703,-116.699,-187.988,-79.590,0.000
1732318734.482,-104.980,-158.691,-390.137,-100.098,0.000
1732318734.486,-105.469,-103.027,-284.180,-128.906,0.000
1732318734.490,-97.656,-75.195,-95.703,-120.605,0.000
1732318734.495,-92.773,-92.773,-33.691,-102.539,0.000
1732318734.499,-91.797,-105.469,-85.938,-97.168,0.000
1732318734.503,-88.379,-131.836,-325.684,-109.863,0.000
1732318734.506,-105.957,-111.328,-289.062,-130.859,0.000
1732318734.510,-128.418,-94.238,-87.402,-127.441,0.000
1732318734.514,-109.863,-149.414,-287.109,-107.422,0.000
1732318734.518,-99.609,-145.996,-431.641,-127.930,0.000
1732318734.522,-92.285,-97.656,-294.434,-137.695,0.000
1732318734.525,-93.262,-150.391,-399.414,-93.750,0.000
1732318734.529,-121.582,-150.391,-406.250,-104.980,0.000
1732318734.533,-115.234,-87.891,-189.453,-158.203,0.000
1732318734.537,-96.680,-96.191,-241.699,-146.973,0.000
1732318734.542,-113.770,-90.332,-210.938,-127.930,0.000
1732318734.546,-111.328,-88.867,-174.805,-116.699,0.000
1732318734.550,-101.562,-104.004,-249.512,-125.000,0.000
1732318734.553,-102.539,-96.191,-229.492,-151.367,0.000
1732318734.557,-108.398,-98.145,-180.664,-145.020,0.000
1732318734.561,-107.910,-112.305,-203.613,-117.676,0.000
1732318734.565,-108.398,-107.422,-259.277,-125.977,0.000
1732318734.569,-106.445,-131.836,-380.859,-130.859,0.000
1732318734.572,-81.055,-134.277,-433.105,-85.449,0.000
1732318734.576,-91.797,-47.852,-158.203,-77.637,0.000
1732318734.580,-117.676,-46.387,-82.520,-116.211,0.000
1732318734.584,-119.629,-97.168,-295.898,-147.949,0.000
1732318734.589,-134.277,-75.684,-246.094,-161.133,0.000
1732318734.593,-132.324,-74.707,-205.078,-138.672,0.000
1732318734.596,-114.746,-69.824,-210.938,-136.230,0.000
1732318734.600,-116.211,-64.941,-172.363,-152.344,0.000
1732318734.604,-119.629,-82.520,-234.863,-134.766,0.000
1732318734.608,-92.285,-92.285,-266.602,-116.211,0.000
1732318734.612,-94.238,-81.543,-229.980,-113.770,0.000
1732318734.615,-112.793,-126.953,-402.832,-112.793,0.000
1732318734.619,-90.820,-125.977,-469.727,-122.070,0.000
1732318734.623,-103.516,-42.480,-175.293,-129.883,0.000
1732318734.627,-109.863,-44.922,-75.684,-116.211,0.000
1732318734.631,-102.051,-66.406,-131.836,-133.789,0.000
1732318734.635,-85.449,-88.867,-250.977,-133.789,0.000
1732318734.639,-71.777,-86.426,-298.340,-106.445,0.000
1732318734.643,-92.285,-56.641,-141.113,-105.957,0.000
1732318734.647,-104.492,-50.781,-25.391,-119.141,0.000
1732318734.651,-97.656,-86.914,-177.734,-126.465,0.000
1732318734.654,-94.238,-104.492,-297.852,-123.535,0.000
1732318734.658,-89.355,-98.633,-272.461,-108.887,0.000
1732318734.662,-82.520,-107.422,-310.059,-89.355,0.000
1732318734.666,-92.285,-68.359,-208.984,-112.305,0.000
1732318734.670,-81.055,-60.547,-97.168,-133.301,0.000
1732318734.673,-73.242,-69.824,-79.102,-112.305,0.000
1732318734.677,-87.891,-52.734,-27.344,-90.332,0.000
1732318734.682,-82.520,-80.078,-143.066,-90.332,0.000
1732318734.686,-69.824,-91.309,-276.855,-98.145,0.000
1732318734.690,-81.055,-64.453,-207.520,-90.332,0.000
1732318734.694,-89.355,-65.918,-100.098,-85.449,0.000
1732318734.697,-88.867,-90.820,-134.277,-95.703,0.000
1732318734.701,-91.309,-113.770,-287.598,-104.492,0.000
1732318734.705,-85.449,-149.902,-462.891,-92.773,0.000
1732318734.709,-103.027,-100.586,-354.004,-95.215,0.000
1732318734.713,-130.859,-26.855,-9.766,-117.188,0.000
1732318734.716,-114.258,-68.359,-55.176,-131.348,0.000
1732318734.720,-112.793,-82.520,-160.156,-142.578,0.000
1732318734.724,-116.699,-81.055,-136.719,-117.188,0.000
1732318734.729,-104.980,-80.566,-125.000,-96.680,0.000
1732318734.733,-103.516,-69.824,-127.441,-118.164,0.000
1732318734.736,-97.656,-76.660,-159.180,-138.184,0.000
1732318734.740,-104.492,-67.383,-109.863,-122.070,0.000
1732318734.744,-105.469,-49.805,6.348,-106.445,0.000
1732318734.748,-79.590,-90.332,-127.930,-114.258,0.000
1732318734.752,-44.922,-129.883,-396.973,-106.445,0.000
1732318734.755,-60.547,-66.406,-249.023,-100.098,0.000
1732318734.759,-84.961,-20.996,14.648,-102.051,0.000
1732318734.763,-88.379,-40.527,50.781,-102.051,0.000
1732318734.767,-94.727,-58.594,-7.324,-136.230,0.000
1732318734.771,-88.379,-83.008,-140.625,-129.395,0.000
1732318734.775,-98.145,-72.266,-102.539,-109.863,0.000
1732318734.779,-113.770,-45.410,39.551,-109.863,0.000
1732318734.783,-111.328,-75.684,-58.105,-109.375,0.000
1732318734.787,-95.215,-84.961,-125.000,-116.211,0.000
1732318734.791,-99.121,-72.754,-18.555,-126.465,0.000
1732318734.794,-103.516,-124.512,-147.949,-103.516,0.000
1732318734.798,-101.074,-130.859,-289.062,-104.980,0.000
1732318734.802,-107.422,-80.566,-134.766,-134.766,0.000
1732318734.806,-98.145,-70.312,-28.809,-131.836,0.000
1732318734.810,-115.723,-60.547,43.945,-111.816,0.000
1732318734.813,-123.535,-92.773,-44.434,-120.605,0.000
1732318734.817,-106.934,-122.070,-273.926,-135.254,0.000
1732318734.823,-117.188,-86.426,-143.555,-120.117,0.000
1732318734.826,-117.188,-56.641,113.281,-125.977,0.000
1732318734.830,-91.797,-78.125,58.594,-137.207,0.000
1732318734.834,-90.820,-100.586,-45.898,-137.207,0.000
1732318734.838,-90.332,-96.680,-77.637,-110.352,0.000
1732318734.842,-87.402,-91.797,-47.852,-57.129,0.000
1732318734.845,-100.586,-75.684,45.410,-112.305,0.000
1732318734.849,-86.426,-72.754,-7.812,-160.645,0.000
1732318734.853,-74.219,-70.801,-67.383,-128.906,0.000
1732318734.857,-91.797,-57.129,91.797,-105.957,0.000
1732318734.861,-96.680,-90.332,111.816,-78.125,0.000
1732318734.865,-66.895,-108.887,-78.613,-96.191,0.000
1732318734.870,-72.266,-62.500,23.438,-138.184,0.000
1732318734.874,-95.703,-78.613,75.195,-132.324,0.000
1732318734.877,-106.934,-72.266,101.074,-101.562,0.000
1732318734.881,-112.305,-52.734,202.148,-116.211,0.000
1732318734.885,-92.773,-94.727,3.418,-129.883,0.000
1732318734.889,-89.844,-97.168,-76.172,-89.844,0.000
1732318734.893,-101.074,-44.434,162.109,-64.453,0.000
1732318734.897,-105.957,-24.902,310.547,-95.215,0.000
1732318734.900,-97.168,-45.898,248.047,-127.441,0.000
1732318734.904,-97.168,-50.781,239.258,-139.648,0.000
1732318734.908,-84.961,-80.566,110.352,-92.285,0.000
1732318734.912,-83.008,-34.180,183.594,-69.824,0.000
1732318734.917,-117.188,13.184,393.066,-114.746,0.000
1732318734.921,-125.000,-6.348,259.277,-118.652,0.000
1732318734.925,-126.465,39.551,361.816,-96.191,0.000
1732318734.928,-125.000,41.992,399.414,-89.355,0.000
1732318734.932,-116.211,-6.348,139.160,-102.539,0.000
1732318734.936,-112.305,-0.488,36.621,-113.770,0.000
1732318734.940,-110.352,23.926,129.883,-107.910,0.000
1732318734.944,-114.746,25.391,187.500,-89.355,0.000
1732318734.947,-112.305,40.527,225.586,-94.727,0.000
1732318734.951,-80.566,22.949,97.168,-83.984,0.000
1732318734.955,-75.684,5.371,-117.188,-73.242,0.000
1732318734.959,-92.773,93.262,123.535,-90.820,0.000
1732318734.964,-84.961,113.281,259.766,-84.473,0.000
1732318734.968,-95.703,59.570,39.551,-91.309,0.000
1732318734.972,-93.750,58.594,-28.320,-100.098,0.000
1732318734.975,-99.121,40.039,-27.832,-95.703,0.000
1732318734.979,-103.516,16.113,-48.340,-83.008,0.000
1732318734.983,-97.656,-15.625,-218.750,-85.938,0.000
1732318734.987,-98.145,-23.926,-344.238,-105.469,0.000
1732318734.991,-100.098,-1.465,-274.414,-97.168,0.000
1732318734.995,-100.586,0.488,-197.754,-81.543,0.000
1732318734.998,-83.496,-56.152,-400.391,-77.148,0.000
1732318735.002,-86.426,-48.340,-521.973,-94.727,0.000
1732318735.006,-103.027,27.344,-331.543,-107.422,0.000
1732318735.011,-104.980,9.766,-302.246,-90.332,0.000
1732318735.015,-111.328,-3.906,-329.102,-101.562,0.000
1732318735.019,-92.285,-39.551,-475.098,-106.934,0.000
1732318735.023,-85.938,-57.129,-504.883,-91.309,0.000
1732318735.026,-103.027,-40.527,-438.477,-83.496,0.000
1732318735.030,-103.516,-56.641,-474.121,-103.516,0.000
1732318735.034,-91.797,-66.895,-526.367,-115.234,0.000
1732318735.038,-88.379,-64.453,-510.254,-103.027,0.000
1732318735.042,-89.844,-63.477,-443.359,-64.941,0.000
1732318735.045,-94.727,-63.477,-429.199,-73.730,0.000
1732318735.049,-106.445,-47.852,-412.598,-119.629,0.000
1732318735.053,-103.516,-53.711,-394.531,-112.305,0.000
1732318735.058,-107.910,-45.898,-268.066,-93.262,0.000
1732318735.062,-104.980,-30.762,-137.207,-87.402,0.000
1732318735.066,-81.055,-68.848,-316.895,-63.477,0.000
1732318735.069,-81.543,-72.266,-423.340,-86.914,0.000
1732318735.073,-99.121,-28.320,-210.449,-121.582,0.000
1732318735.077,-90.332,-45.898,-183.105,-83.496,0.000
1732318735.081,-87.891,-45.898,-224.121,-98.145,0.000
1732318735.085,-88.867,-37.598,-183.594,-128.418,0.000
1732318735.089,-73.242,-100.586,-401.367,-89.355,0.000
1732318735.092,-88.379,-77.637,-336.426,-70.801,0.000
1732318735.096,-108.398,-11.719,31.250,-89.355,0.000
1732318735.100,-82.520,-37.109,-63.477,-111.816,0.000
1732318735.105,-75.684,-43.945,-111.328,-122.559,0.000
1732318735.109,-88.379,-55.664,-83.984,-102.051,0.000
1732318735.113,-80.566,-48.828,-89.355,-78.613,0.000
1732318735.116,-86.914,-27.344,-44.434,-105.957,0.000
1732318735.120,-99.121,-35.645,-103.027,-131.348,0.000
1732318735.124,-93.262,-43.457,-178.711,-102.051,0.000
1732318735.128,-109.863,-13.184,-63.477,-77.148,0.000
1732318735.132,-108.887,-17.578,-29.297,-99.121,0.000
1732318735.135,-85.938,-43.457,-262.207,-129.395,0.000
1732318735.139,-91.309,15.137,-93.262,-133.789,0.000
1732318735.143,-102.539,38.086,177.246,-112.305,0.000
1732318735.147,-113.281,11.230,130.859,-95.215,0.000
1732318735.152,-105.469,5.859,56.641,-111.816,0.000
1732318735.156,-88.379,-11.719,-76.172,-119.141,0.000
1732318735.159,-105.469,3.418,0.488,-99.609,0.000
1732318735.163,-113.770,24.414,145.996,-106.445,0.000
1732318735.167,-94.727,-12.207,-48.340,-121.582,0.000
1732318735.171,-68.359,-24.902,-214.355,-104.492,0.000
1732318735.175,-73.730,3.906,-92.773,-85.449,0.000
1732318735.178,-102.539,-26.855,-128.418,-74.219,0.000
1732318735.182,-122.070,-44.922,-250.488,-97.656,0.000
1732318735.186,-116.699,12.695,-62.500,-140.137,0.000
1732318735.190,-104.980,18.555,11.719,-124.512,0.000
1732318735.194,-104.980,24.902,87.402,-107.422,0.000
1732318735.199,-98.633,1.465,24.902,-109.863,0.000
1732318735.202,-91.309,-26.367,-177.246,-118.652,0.000
1732318735.206,-89.355,2.930,-108.398,-116.699,0.000
1732318735.210,-93.262,21.484,36.133,-99.121,0.000
1732318735.214,-91.797,-12.695,-7.324,-96.680,0.000
1732318735.218,-76.660,-47.852,-173.828,-112.793,0.000
1732318735.221,-72.266,-31.250,-244.141,-111.328,0.000
1732318735.225,-63.965,-39.062,-316.895,-74.707,0.000
1732318735.229,-97.656,-3.906,-166.504,-87.402,0.000
1732318735.233,-117.188,21.484,-17.090,-135.254,0.000
1732318735.237,-86.426,0.000,-133.789,-123.535,0.000
1732318735.241,-87.891,6.348,-108.398,-110.352,0.000
1732318735.245,-104.492,-12.695,-143.066,-105.957,0.000
1732318735.249,-112.305,-23.438,-212.891,-114.258,0.000
1732318735.253,-96.191,-16.113,-190.430,-129.883,0.000
1732318735.257,-84.473,-21.973,-161.621,-126.465,0.000
1732318735.260,-101.074,-24.902,-112.305,-102.051,0.000
1732318735.264,-109.375,-41.992,-161.621,-89.844,0.000
1732318735.268,-80.566,-105.957,-441.406,-88.867,0.000
1732318735.272,-76.660,-87.891,-414.551,-104.492,0.000
1732318735.276,-104.004,6.836,-40.527,-133.789,0.000
1732318735.280,-84.961,-15.137,-91.309,-123.047,0.000
1732318735.283,-67.871,-43.945,-273.438,-122.559,0.000
1732318735.287,-96.680,-36.621,-261.719,-111.328,0.000
1732318735.292,-107.422,-21.973,-176.758,-95.703,0.000
1732318735.296,-88.379,-5.859,-89.355,-100.098,0.000
1732318735.299,-79.102,-29.785,-161.133,-111.328,0.000
1732318735.303,-78.613,-34.180,-220.215,-119.629,0.000
1732318735.307,-79.102,-24.414,-154.785,-112.305,0.000
1732318735.311,-90.332,-59.082,-194.824,-96.680,0.000
1732318735.315,-86.426,-100.098,-378.906,-101.562,0.000
1732318735.319,-82.031,-68.359,-375.488,-127.441,0.000
1732318735.322,-99.121,-17.090,-133.301,-136.719,0.000
1732318735.326,-94.727,-10.254,2.930,-124.512,0.000
1732318735.330,-92.285,-33.691,-56.152,-118.652,0.000
1732318735.334,-88.379,-86.426,-318.848,-122.070,0.000
1732318735.338,-77.637,-89.355,-392.578,-125.977,0.000
1732318735.342,-110.352,-55.176,-234.863,-114.258,0.000
1732318735.346,-110.840,-42.969,-163.574,-111.328,0.000
1732318735.350,-99.609,-42.480,-159.668,-125.977,0.000
1732318735.354,-119.629,-60.547,-205.566,-131.348,0.000
1732318735.358,-112.793,-101.562,-343.262,-102.539,0.000
1732318735.361,-111.816,-73.730,-294.434,-107.910,0.000
1732318735.365,-101.562,-39.551,-110.840,-161.133,0.000
1732318735.369,-77.148,-79.590,-188.477,-159.180,0.000
1732318735.373,-105.957,-69.336,-177.734,-127.930,0.000
1732318735.377,-95.703,-63.477,-88.867,-111.328,0.000
1732318735.381,-68.359,-107.910,-251.465,-116.211,0.000
1732318735.386,-99.121,-92.285,-264.648,-134.766,0.000
1732318735.390,-89.844,-68.848,-106.445,-137.695,0.000
1732318735.393,-72.266,-78.125,-60.547,-126.465,0.000
1732318735.397,-80.566,-82.031,-91.797,-114.746,0.000
1732318735.401,-74.707,-97.656,-249.023,-117.676,0.000
1732318735.405,-52.734,-105.469,-357.422,-112.305,0.000
1732318735.409,-59.570,-80.078,-247.559,-101.074,0.000
1732318735.413,-89.355,-60.059,-130.371,-125.000,0.000
1732318735.416,-84.473,-66.895,-153.809,-155.273,0.000
1732318735.420,-58.594,-58.105,-143.066,-155.762,0.000
1732318735.424,-20.996,-76.660,-171.387,-127.930,0.000
1732318735.428,-30.762,-103.516,-238.770,-126.465,0.000
1732318735.433,-67.383,-65.430,-97.656,-156.738,0.000
1732318735.437,-33.203,-71.289,-99.609,-158.691,0.000
1732318735.441,-34.180,-70.312,-92.773,-152.832,0.000
1732318735.444,-56.641,-68.359,-8.301,-151.855,0.000
1732318735.448,-50.293,-101.562,-160.156,-145.020,0.000
1732318735.452,-32.715,-118.652,-343.750,-152.344,0.000
1732318735.456,-20.020,-91.797,-244.629,-159.668,0.000
1732318735.460,-43.457,-74.707,-100.586,-144.043,0.000
1732318735.464,-36.621,-79.102,-89.355,-136.719,0.000
1732318735.467,-24.902,-83.984,-123.047,-147.461,0.000
1732318735.471,-10.254,-144.531,-384.277,-136.230,0.000
1732318735.475,-16.113,-119.141,-346.191,-143.555,0.000
1732318735.480,-41.016,-51.758,-13.184,-175.293,0.000
1732318735.484,-46.875,-97.168,-87.891,-189.453,0.000
1732318735.488,-57.617,-93.750,-141.113,-191.895,0.000
1732318735.492,-66.895,-90.820,-132.812,-188.477,0.000
1732318735.495,-95.215,-106.934,-150.879,-196.777,0.000
1732318735.499,-101.074,-98.145,-211.426,-198.730,0.000
1732318735.503,-95.215,-98.633,-340.820,-229.004,0.000
1732318735.507,-125.000,-75.195,-286.621,-281.738,0.000
1732318735.511,-174.805,-37.109,-68.359,-298.340,0.000
1732318735.514,-204.102,-85.449,-135.254,-303.711,0.000
1732318735.518,-179.688,-139.648,-398.438,-310.547,0.000
1732318735.522,-202.637,-65.430,-233.398,-339.355,0.000
1732318735.527,-244.141,-40.039,-20.508,-359.375,0.000
1732318735.531,-244.141,-61.035,-18.066,-349.121,0.000
1732318735.535,-252.441,-73.242,-119.141,-366.699,0.000
1732318735.539,-226.562,-93.750,-276.855,-372.070,0.000
1732318735.542,-211.914,-78.125,-205.566,-343.262,0.000
1732318735.546,-217.285,-69.336,-70.312,-329.102,0.000
1732318735.550,-203.125,-94.238,-165.527,-330.566,0.000
1732318735.554,-183.594,-102.051,-209.473,-323.730,0.000
1732318735.558,-185.059,-83.496,-60.059,-314.941,0.000
1732318735.562,-180.176,-130.371,-233.887,-269.043,0.000
1732318735.565,-176.270,-141.113,-333.496,-267.578,0.000
1732318735.569,-152.344,-80.078,-82.520,-299.316,0.000
1732318735.574,-115.234,-89.844,-78.613,-253.418,0.000
1732318735.578,-104.004,-81.055,-17.090,-210.938,0.000
1732318735.582,-58.105,-98.633,-44.434,-194.824,0.000
1732318735.586,-41.504,-131.836,-194.336,-191.406,0.000
1732318735.589,-52.246,-114.258,-150.879,-172.363,0.000
1732318735.593,-20.508,-118.652,-135.254,-130.859,0.000
1732318735.597,-16.113,-131.348,-135.742,-125.977,0.000
1732318735.601,-14.160,-151.855,-187.988,-132.324,0.000
1732318735.605,8.301,-170.898,-249.023,-110.840,0.000
1732318735.609,27.344,-171.875,-299.805,-83.496,0.000
1732318735.612,19.043,-108.398,-86.914,-99.609,0.000
1732318735.616,18.555,-98.633,28.809,-119.629,0.000
1732318735.621,26.367,-122.559,-109.375,-104.004,0.000
1732318735.625,19.043,-103.027,-37.109,-69.336,0.000
1732318735.629,16.113,-121.582,-60.547,-46.875,0.000
1732318735.633,4.395,-145.508,-214.355,-62.988,0.000
1732318735.636,4.883,-136.719,-234.863,-77.637,0.000
1732318735.640,12.207,-140.625,-249.023,-57.129,0.000
1732318735.644,-8.301,-109.375,-139.648,-44.434,0.000
1732318735.648,-17.578,-87.402,-3.418,-69.336,0.000
1732318735.652,32.715,-163.086,-294.922,-54.688,0.000
1732318735.655,19.531,-159.668,-383.789,-38.086,0.000
1732318735.659,-23.438,-85.449,-9.766,-51.270,0.000
1732318735.663,-8.301,-102.539,31.250,-50.781,0.000
1732318735.668,-4.883,-128.906,-110.840,-71.777,0.000
1732318735.672,3.906,-145.020,-219.727,-78.125,0.000
1732318735.676,-15.137,-137.695,-185.059,-54.199,0.000
1732318735.679,-50.293,-111.328,-39.551,-48.340,0.000
1732318735.683,-19.531,-118.652,-93.750,-53.223,0.000
1732318735.687,11.230,-149.414,-250.000,-51.270,0.000
1732318735.691,-18.066,-140.137,-186.035,-41.992,0.000
1732318735.695,-14.648,-135.742,-93.262,-29.785,0.000
1732318735.699,1.953,-165.039,-249.512,-47.363,0.000
1732318735.702,-3.418,-131.836,-150.879,-82.031,0.000
1732318735.706,15.625,-104.004,50.293,-73.730,0.000
1732318735.710,-1.953,-109.863,58.105,-55.664,0.000
1732318735.715,-14.648,-108.398,80.078,-56.641,0.000
1732318735.719,13.672,-136.719,-101.562,-59.082,0.000
1732318735.722,5.371,-132.324,-174.316,-71.777,0.000
1732318735.726,-16.113,-104.492,-20.508,-69.824,0.000
1732318735.730,-40.039,-121.094,-38.086,-60.547,0.000
1732318735.734,-40.039,-135.742,-186.035,-66.895,0.000
1732318735.738,-26.855,-114.746,-170.410,-84.961,0.000
1732318735.742,-9.277,-122.070,-161.621,-62.500,0.000
1732318735.745,-8.301,-98.633,-78.613,-54.688,0.000
1732318735.749,-14.648,-52.734,109.375,-91.797,0.000
1732318735.753,1.953,-59.570,84.961,-92.773,0.000
1732318735.757,-10.254,-36.133,176.270,-87.402,0.000
1732318735.762,-31.250,-45.410,242.676,-75.195,0.000
1732318735.765,-27.832,-73.730,163.574,-76.660,0.000
1732318735.769,-31.250,-63.477,117.188,-101.562,0.000
1732318735.773,-28.809,-38.574,193.848,-106.934,0.000
1732318735.777,-7.812,-40.039,257.324,-77.637,0.000
1732318735.781,-4.395,-59.082,151.367,-59.082,0.000
1732318735.785,9.277,-81.055,-12.207,-67.383,0.000
1732318735.788,28.809,-101.562,-176.758,-61.035,0.000
1732318735.792,-0.977,-29.785,102.051,-69.824,0.000
1732318735.796,-13.184,-5.371,390.137,-86.914,0.000
1732318735.800,-1.953,-49.316,227.051,-86.426,0.000
1732318735.804,0.000,-63.965,150.391,-92.773,0.000
1732318735.808,-0.488,-88.867,92.773,-74.707,0.000
1732318735.812,-7.324,-78.613,127.930,-67.871,0.000
1732318735.816,-5.371,-74.219,177.246,-99.121,0.000
1732318735.820,-1.953,-99.121,51.270,-114.746,0.000
1732318735.824,-14.648,-101.562,-13.672,-100.586,0.000
1732318735.827,-22.949,-99.609,-22.949,-83.008,0.000
1732318735.831,-21.973,-134.766,-211.426,-82.520,0.000
1732318735.835,-29.785,-141.602,-291.504,-102.051,0.000
1732318735.839,-43.945,-92.285,-23.438,-117.676,0.000
1732318735.843,-37.598,-93.750,40.039,-97.168,0.000
1732318735.847,-48.828,-96.680,33.203,-115.234,0.000
1732318735.850,-73.242,-126.465,-94.238,-150.879,0.000
1732318735.855,-67.871,-137.207,-248.535,-146.484,0.000
1732318735.859,-64.453,-98.145,-104.004,-126.953,0.000
1732318735.863,-75.195,-100.098,-16.113,-115.234,0.000
1732318735.866,-70.312,-129.395,-168.457,-129.883,0.000
1732318735.870,-67.871,-125.000,-239.746,-134.766,0.000
1732318735.874,-67.383,-125.000,-209.473,-106.934,0.000
1732318735.878,-69.824,-158.691,-327.637,-92.285,0.000
1732318735.882,-82.031,-135.254,-286.621,-125.488,0.000
1732318735.886,-90.820,-108.398,-130.371,-150.391,0.000
1732318735.889,-98.633,-125.977,-122.559,-124.023,0.000
1732318735.893,-103.027,-111.816,-60.547,-112.793,0.000
1732318735.897,-94.238,-131.348,-132.324,-86.426,0.000
1732318735.902,-97.168,-160.645,-274.902,-94.238,0.000
1732318735.905,-111.328,-129.395,-188.965,-138.184,0.000
1732318735.909,-120.605,-115.234,-68.848,-122.559,0.000
1732318735.913,-123.047,-112.305,-51.758,-121.582,0.000
1732318735.917,-120.605,-124.512,-114.258,-133.301,0.000
1732318735.921,-110.352,-177.246,-359.375,-114.746,0.000
1732318735.925,-106.934,-166.016,-396.484,-97.168,0.000
1732318735.928,-113.770,-110.840,-131.348,-113.281,0.000
1732318735.932,-126.465,-121.094,-82.520,-130.859,0.000
1732318735.936,-140.625,-147.461,-162.598,-136.719,0.000
1732318735.940,-139.648,-149.414,-143.066,-122.559,0.000
1732318735.944,-139.160,-158.691,-179.688,-108.398,0.000
1732318735.949,-145.996,-144.043,-179.688,-131.348,0.000
1732318735.953,-145.508,-133.301,-133.789,-136.719,0.000
1732318735.956,-137.695,-132.324,-114.258,-133.301,0.000
1732318735.960,-124.512,-117.188,-8.301,-143.555,0.000
1732318735.964,-142.578,-144.531,-37.598,-146.484,0.000
1732318735.968,-147.949,-178.711,-246.582,-138.184,0.000
1732318735.972,-133.301,-168.457,-268.066,-144.043,0.000
1732318735.976,-161.133,-145.508,-139.648,-127.930,0.000
1732318735.979,-162.598,-119.141,-10.742,-120.605,0.000
1732318735.983,-140.137,-132.812,-77.148,-137.695,0.000
1732318735.987,-121.582,-161.133,-248.535,-132.812,0.000
1732318735.991,-109.375,-141.113,-198.242,-119.141,0.000
1732318735.996,-139.160,-90.332,60.059,-114.746,0.000
1732318736.000,-132.812,-106.934,60.547,-121.582,0.000
1732318736.004,-99.121,-119.629,-83.984,-139.160,0.000
1732318736.007,-109.863,-106.934,-32.715,-134.277,0.000
1732318736.011,-119.629,-125.000,-30.273,-102.539,0.000
1732318736.015,-128.418,-151.855,-147.949,-103.516,0.000
1732318736.019,-101.074,-140.625,-199.219,-136.230,0.000
1732318736.023,-99.121,-111.328,-74.219,-140.137,0.000
1732318736.027,-111.816,-107.422,91.309,-129.395,0.000
1732318736.030,-105.957,-123.047,60.547,-123.535,0.000
1732318736.034,-114.746,-198.730,-316.406,-121.582,0.000
1732318736.038,-115.234,-185.547,-398.438,-144.531,0.000
1732318736.043,-133.301,-104.980,-67.383,-157.227,0.000
1732318736.047,-136.230,-99.609,37.109,-152.832,0.000
1732318736.051,-124.023,-104.492,-28.320,-152.344,0.000
1732318736.054,-109.375,-131.348,-168.457,-139.648,0.000
1732318736.058,-110.352,-137.695,-160.645,-121.094,0.000
1732318736.062,-112.305,-113.770,-80.078,-117.676,0.000
1732318736.066,-122.070,-129.883,-160.645,-122.070,0.000
1732318736.070,-130.859,-147.461,-258.301,-144.531,0.000
1732318736.074,-137.207,-115.723,-118.652,-156.250,0.000
1732318736.077,-125.977,-124.512,-30.762,-131.836,0.000
1732318736.081,-117.676,-154.785,-225.098,-125.000,0.000
1732318736.085,-129.395,-111.816,-165.039,-157.715,0.000
1732318736.090,-134.277,-93.750,-13.184,-139.648,0.000
1732318736.094,-145.508,-85.938,59.570,-123.535,0.000
1732318736.098,-126.465,-93.262,13.184,-156.250,0.000
1732318736.101,-94.238,-128.418,-236.328,-155.762,0.000
1732318736.105,-101.562,-123.047,-271.973,-136.230,0.000
1732318736.109,-125.488,-110.352,-191.406,-117.188,0.000
1732318736.113,-122.070,-101.562,-130.371,-119.141,0.000
1732318736.117,-118.164,-88.867,-98.633,-138.672,0.000
1732318736.121,-110.352,-94.238,-134.766,-147.949,0.000
1732318736.124,-94.727,-154.297,-317.383,-121.094,0.000
1732318736.128,-108.887,-134.277,-274.902,-111.328,0.000
1732318736.132,-121.094,-77.637,-17.090,-143.555,0.000
1732318736.137,-104.980,-114.746,-158.203,-145.508,0.000
1732318736.141,-109.375,-104.004,-153.320,-140.625,0.000
1732318736.145,-126.465,-96.680,-86.426,-127.441,0.000
1732318736.148,-109.863,-105.469,-164.551,-140.137,0.000
1732318736.152,-110.352,-106.445,-209.473,-170.898,0.000
1732318736.156,-118.652,-116.699,-243.652,-161.621,0.000
1732318736.160,-118.164,-104.004,-199.707,-138.184,0.000
1732318736.164,-131.836,-98.145,-133.789,-124.023,0.000
1732318736.168,-135.742,-128.418,-200.684,-136.230,0.000
1732318736.171,-111.328,-150.391,-370.605,-138.672,0.000
1732318736.175,-114.258,-85.938,-158.691,-137.207,0.000
1732318736.179,-123.047,-55.664,83.008,-137.695,0.000
1732318736.184,-104.004,-90.332,-72.266,-153.809,0.000
1732318736.188,-140.137,-92.773,-165.039,-168.457,0.000
1732318736.191,-150.879,-97.656,-185.059,-144.043,0.000
1732318736.195,-127.441,-93.750,-133.301,-134.277,0.000
1732318736.199,-119.629,-84.473,-74.219,-159.180,0.000
1732318736.203,-104.980,-119.141,-284.668,-159.180,0.000
1732318736.207,-128.418,-98.145,-251.953,-149.902,0.000
1732318736.211,-137.207,-57.617,19.531,-142.578,0.000
1732318736.214,-97.168,-127.441,-233.887,-122.070,0.000
1732318736.218,-107.422,-140.137,-415.527,-140.137,0.000
1732318736.222,-145.996,-70.801,-97.656,-168.945,0.000
1732318736.226,-123.047,-69.336,0.000,-153.809,0.000
1732318736.231,-104.980,-79.590,-5.859,-142.578,0.000
1732318736.235,-102.539,-107.422,-99.121,-148.438,0.000
1732318736.238,-97.656,-118.652,-208.496,-158.203,0.000
1732318736.242,-94.727,-88.867,-83.008,-152.832,0.000
1732318736.246,-110.352,-85.938,20.996,-138.184,0.000
1732318736.250,-109.863,-120.605,-151.367,-148.926,0.000
1732318736.254,-79.102,-124.023,-278.320,-159.180,0.000
1732318736.258,-58.105,-124.023,-229.004,-143.555,0.000
1732318736.261,-96.191,-136.230,-270.508,-117.188,0.000
1732318736.265,-142.090,-82.031,-143.066,-142.090,0.000
1732318736.269,-132.324,-66.406,-28.320,-174.805,0.000
1732318736.273,-124.512,-93.262,-112.305,-157.227,0.000
1732318736.278,-97.168,-60.547,3.418,-150.879,0.000
1732318736.281,-94.238,-68.848,46.875,-143.066,0.000
1732318736.285,-106.934,-83.984,-55.664,-148.438,0.000
1732318736.289,-76.660,-59.082,-23.926,-168.945,0.000
1732318736.293,-55.176,-63.965,-2.441,-149.414,0.000
1732318736.297,-65.918,-75.684,-78.125,-133.789,0.000
1732318736.301,-19.531,-64.453,-105.469,-159.180,0.000
1732318736.304,12.695,-97.168,-235.352,-143.066,0.000
1732318736.308,-56.641,-90.332,-213.867,-143.066,0.000
1732318736.312,-110.352,-14.648,140.625,-154.297,0.000
1732318736.316,-61.523,-8.789,162.109,-156.738,0.000
1732318736.320,-41.992,5.371,80.078,-175.293,0.000
1732318736.324,-61.523,34.180,135.254,-149.902,0.000
1732318736.328,-42.969,66.406,210.449,-129.883,0.000
1732318736.332,-46.387,91.797,199.707,-139.648,0.000
1732318736.336,-69.824,121.582,224.609,-150.391,0.000
1732318736.340,-44.922,174.805,327.637,-134.277,0.000
1732318736.344,-46.387,223.145,328.613,-132.812,0.000
1732318736.347,-39.551,260.742,310.547,-149.414,0.000
1732318736.351,-3.418,273.926,104.492,-141.113,0.000
1732318736.355,-43.457,335.938,239.746,-145.996,0.000
1732318736.359,-45.410,374.512,531.250,-147.461,0.000
1732318736.363,-36.133,339.844,483.887,-130.371,0.000
1732318736.367,-59.570,298.828,447.754,-143.555,0.000
1732318736.371,-87.891,263.184,365.234,-137.695,0.000
1732318736.375,-174.316,264.648,409.668,-125.000,0.000
1732318736.379,-219.238,261.719,520.996,-135.742,0.000
1732318736.383,-183.105,204.102,497.559,-149.414,0.000
1732318736.386,-154.297,146.484,473.633,-156.738,0.000
1732318736.390,-122.559,111.328,499.512,-138.672,0.000
1732318736.394,-83.984,57.617,424.805,-102.539,0.000
1732318736.398,-48.828,29.297,398.926,-112.793,0.000
1732318736.402,-28.320,54.199,516.602,-155.762,0.000
1732318736.406,-2.441,27.344,500.488,-140.137,0.000
1732318736.410,23.926,3.418,525.879,-126.953,0.000
1732318736.413,56.152,-29.297,501.465,-128.418,0.000
1732318736.418,86.426,-72.754,368.164,-130.859,0.000
1732318736.422,95.703,-77.637,368.164,-138.672,0.000
1732318736.425,98.633,-95.215,449.219,-127.930,0.000
1732318736.429,111.328,-126.953,412.598,-109.375,0.000
1732318736.433,126.953,-153.320,293.457,-128.418,0.000
1732318736.437,148.926,-195.801,143.555,-143.066,0.000
1732318736.441,154.297,-244.141,-115.723,-111.328,0.000
1732318736.445,137.207,-222.168,-19.043,-111.328,0.000
1732318736.448,137.207,-222.656,118.652,-148.926,0.000
1732318736.452,143.066,-254.883,-47.363,-164.551,0.000
1732318736.456,129.883,-234.863,38.574,-160.645,0.000
1732318736.460,135.254,-258.301,21.484,-138.672,0.000
1732318736.464,138.672,-277.832,-104.004,-140.137,0.000
1732318736.468,116.699,-281.250,-116.211,-144.043,0.000
1732318736.472,105.957,-302.734,-199.707,-145.020,0.000
1732318736.476,104.980,-289.062,-216.309,-149.414,0.000
1732318736.480,91.797,-272.461,-187.988,-148.438,0.000
1732318736.484,96.191,-332.031,-462.891,-138.672,0.000
1732318736.487,93.262,-339.355,-539.062,-138.672,0.000
1732318736.491,52.734,-288.086,-276.855,-131.836,0.000
1732318736.495,55.176,-303.223,-235.840,-109.863,0.000
1732318736.499,48.340,-305.176,-327.148,-132.324,0.000
1732318736.503,10.742,-308.105,-421.387,-165.527,0.000
1732318736.507,0.488,-335.449,-472.656,-139.160,0.000
1732318736.512,-5.371,-300.293,-307.129,-125.977,0.000
1732318736.515,0.000,-273.438,-204.590,-144.531,0.000
1732318736.519,-8.301,-292.480,-314.941,-132.324,0.000
1732318736.523,-20.508,-278.320,-314.453,-130.859,0.000
1732318736.527,-30.273,-275.391,-253.906,-124.512,0.000
1732318736.531,-43.945,-305.664,-365.723,-91.797,0.000
1732318736.535,-31.738,-309.082,-457.520,-103.027,0.000
1732318736.539,-19.531,-289.062,-366.699,-158.691,0.000
1732318736.542,-36.621,-264.648,-203.613,-139.160,0.000
1732318736.546,-63.477,-239.258,-98.145,-102.539,0.000
1732318736.550,-44.922,-268.555,-217.773,-108.887,0.000
1732318736.554,-20.020,-283.691,-375.488,-98.633,0.000
1732318736.559,-37.109,-215.332,-133.301,-102.051,0.000
1732318736.563,-46.875,-189.941,64.941,-103.027,0.000
1732318736.566,-29.785,-216.797,-88.867,-108.398,0.000
1732318736.570,-18.555,-216.309,-140.137,-122.559,0.000
1732318736.574,-29.297,-213.379,-104.492,-99.609,0.000
1732318736.578,-37.109,-209.961,-125.488,-79.590,0.000
1732318736.582,-53.223,-186.035,-54.688,-97.168,0.000
1732318736.586,-47.852,-180.176,-25.879,-108.398,0.000
1732318736.589,-48.828,-185.059,-49.805,-113.770,0.000
1732318736.593,-76.172,-187.012,5.859,-113.770,0.000
1732318736.597,-68.848,-241.699,-228.027,-102.539,0.000
1732318736.601,-69.336,-240.234,-367.676,-128.418,0.000
1732318736.606,-81.055,-171.387,-93.262,-158.203,0.000
1732318736.610,-77.637,-159.668,6.836,-126.953,0.000
1732318736.614,-86.426,-137.695,48.340,-122.559,0.000
1732318736.617,-84.473,-151.855,-79.590,-141.602,0.000
1732318736.621,-63.477,-171.875,-244.141,-146.484,0.000
1732318736.625,-50.293,-151.367,-177.734,-135.742,0.000
1732318736.629,-89.355,-133.789,-96.191,-116.699,0.000
1732318736.633,-118.164,-139.648,-159.180,-121.094,0.000
1732318736.637,-101.074,-120.605,-185.059,-141.602,0.000
1732318736.640,-84.961,-112.793,-140.137,-146.484,0.000
1732318736.644,-93.750,-132.812,-223.633,-126.953,0.000
1732318736.648,-120.117,-81.543,-84.473,-130.859,0.000
1732318736.653,-105.469,-71.777,-12.207,-144.531,0.000
1732318736.657,-102.539,-93.750,-99.609,-141.602,0.000
1732318736.661,-120.605,-76.172,-37.598,-134.277,0.000
1732318736.664,-120.117,-80.566,-81.543,-150.391,0.000
1732318736.668,-109.863,-90.820,-162.109,-179.688,0.000
1732318736.672,-70.801,-84.961,-187.988,-160.645,0.000
1732318736.676,-69.824,-59.082,-113.281,-129.883,0.000
1732318736.680,-137.695,-53.711,13.184,-146.484,0.000
1732318736.684,-136.719,-79.590,-76.172,-163.574,0.000
1732318736.687,-98.633,-115.234,-334.473,-153.320,0.000
1732318736.691,-116.211,-83.984,-279.297,-155.273,0.000
1732318736.695,-139.648,-22.949,62.988,-172.852,0.000
1732318736.700,-134.766,-63.965,-1.953,-173.340,0.000
1732318736.704,-125.977,-73.242,-94.238,-183.105,0.000
1732318736.708,-114.746,-70.801,-76.660,-169.922,0.000
1732318736.711,-119.141,-69.336,-58.594,-148.438,0.000
1732318736.715,-129.883,-68.848,-41.992,-165.527,0.000
1732318736.719,-115.234,-98.633,-208.496,-150.391,0.000
1732318736.723,-101.074,-91.309,-250.488,-143.066,0.000
1732318736.727,-116.211,-62.500,-120.605,-158.691,0.000
1732318736.731,-145.020,-66.895,-46.387,-141.602,0.000
1732318736.734,-133.301,-107.422,-265.137,-136.230,0.000
1732318736.738,-124.512,-75.684,-218.262,-161.621,0.000
1732318736.742,-122.559,-48.340,8.301,-152.344,0.000
1732318736.747,-126.953,-50.781,70.801,-142.578,0.000
1732318736.751,-116.699,-64.453,50.781,-165.039,0.000
1732318736.754,-106.445,-101.074,-151.855,-157.227,0.000
1732318736.758,-130.859,-95.703,-149.414,-148.438,0.000
1732318736.762,-139.160,-76.660,27.344,-144.531,0.000
1732318736.766,-121.094,-106.445,-103.027,-129.395,0.000
1732318736.770,-110.840,-107.910,-214.355,-157.715,0.000
1732318736.774,-122.559,-81.055,-61.035,-178.711,0.000
1732318736.778,-115.723,-126.953,-152.344,-143.066,0.000
1732318736.781,-112.793,-137.695,-258.301,-130.859,0.000
1732318736.785,-125.000,-90.332,-85.449,-167.480,0.000
1732318736.789,-116.699,-110.352,-127.441,-169.434,0.000
1732318736.794,-130.371,-110.840,-82.520,-149.902,0.000
1732318736.798,-134.277,-121.582,-57.617,-135.254,0.000
1732318736.801,-128.906,-140.137,-224.609,-144.531,0.000
1732318736.805,-122.070,-120.117,-210.938,-159.180,0.000
1732318736.809,-104.492,-116.699,-137.695,-133.301,0.000
1732318736.813,-102.051,-129.395,-191.895,-121.094,0.000
1732318736.817,-127.930,-140.137,-240.723,-146.973,0.000
1732318736.821,-128.906,-149.902,-332.520,-159.668,0.000
1732318736.824,-113.281,-144.043,-401.367,-137.207,0.000
1732318736.828,-131.836,-84.473,-115.234,-143.066,0.000
1732318736.832,-147.949,-90.332,-7.324,-162.109,0.000
1732318736.836,-132.812,-130.371,-215.332,-162.598,0.000
1732318736.841,-136.719,-110.840,-179.199,-171.875,0.000
1732318736.844,-134.277,-125.488,-163.574,-151.855,0.000
1732318736.848,-136.719,-122.559,-173.828,-152.832,0.000
1732318736.852,-146.973,-103.516,-149.414,-175.293,0.000
1732318736.856,-118.652,-124.512,-200.195,-179.688,0.000
1732318736.860,-123.535,-135.254,-229.004,-170.898,0.000
1732318736.864,-162.598,-117.676,-179.199,-159.668,0.000
1732318736.867,-155.762,-149.902,-327.637,-162.109,0.000
1732318736.871,-146.484,-151.855,-376.953,-185.059,0.000
1732318736.875,-154.785,-79.102,-46.875,-186.035,0.000
1732318736.879,-154.297,-79.102,25.391,-166.016,0.000
1732318736.883,-158.691,-104.004,-80.078,-189.453,0.000
1732318736.887,-149.414,-121.582,-187.500,-193.848,0.000
1732318736.891,-146.484,-117.188,-246.094,-171.875,0.000
1732318736.895,-158.203,-87.402,-129.395,-159.668,0.000
1732318736.899,-155.273,-86.426,-82.520,-176.270,0.000
1732318736.903,-134.277,-113.770,-208.008,-178.711,0.000
1732318736.907,-121.582,-127.930,-300.293,-164.062,0.000
1732318736.910,-126.953,-114.746,-226.074,-160.156,0.000
1732318736.914,-122.070,-131.836,-318.848,-145.996,0.000
1732318736.918,-127.441,-108.887,-307.617,-173.340,0.000
1732318736.922,-141.113,-81.055,-107.422,-187.988,0.000
1732318736.926,-146.484,-85.938,-47.363,-167.969,0.000
1732318736.930,-151.855,-83.984,18.555,-176.270,0.000
1732318736.934,-139.160,-117.188,-151.367,-180.176,0.000
1732318736.938,-134.277,-121.094,-259.766,-185.059,0.000
1732318736.942,-145.508,-82.520,-77.637,-171.875,0.000
1732318736.946,-129.395,-69.336,5.859,-139.648,0.000
1732318736.949,-136.230,-98.145,-132.324,-170.898,0.000
1732318736.953,-179.688,-114.258,-248.535,-230.957,0.000
1732318736.957,-187.988,-123.047,-340.332,-222.656,0.000
1732318736.961,-182.129,-98.633,-332.520,-208.008,0.000
1732318736.965,-223.633,-30.762,-91.309,-268.555,0.000
1732318736.969,-238.281,-41.016,-121.582,-308.594,0.000
1732318736.973,-234.375,-55.664,-191.406,-312.012,0.000
1732318736.976,-239.746,-48.340,-151.367,-320.801,0.000
1732318736.981,-265.625,-40.039,-119.629,-312.988,0.000
1732318736.985,-301.270,-41.016,-131.836,-335.449,0.000
1732318736.988,-300.781,-50.293,-184.082,-360.840,0.000
1732318736.992,-314.941,-44.922,-172.852,-352.051,0.000
1732318736.996,-328.613,-38.574,-103.516,-360.840,0.000
1732318737.000,-343.262,-71.289,-229.980,-377.441,0.000
1732318737.004,-326.172,-110.352,-446.777,-373.535,0.000
1732318737.008,-318.359,-60.059,-290.039,-378.906,0.000
1732318737.012,-344.727,-15.625,-13.672,-392.090,0.000
1732318737.015,-332.031,-58.594,-78.613,-382.324,0.000
1732318737.019,-308.594,-71.777,-139.160,-380.371,0.000
1732318737.023,-287.598,-91.309,-180.664,-346.680,0.000
1732318737.028,-281.738,-100.098,-175.293,-328.125,0.000
1732318737.032,-289.062,-82.031,-180.176,-342.285,0.000
1732318737.036,-266.602,-84.961,-278.320,-319.824,0.000
1732318737.039,-254.395,-69.824,-223.633,-300.781,0.000
1732318737.043,-248.535,-60.059,-78.125,-301.758,0.000
1732318737.047,-208.496,-125.977,-278.320,-262.207,0.000
1732318737.051,-198.730,-128.418,-436.035,-248.535,0.000
1732318737.055,-197.266,-71.777,-214.844,-251.465,0.000
1732318737.059,-177.734,-90.332,-93.262,-213.379,0.000
1732318737.063,-174.316,-86.426,-2.930,-173.828,0.000
1732318737.066,-151.855,-103.516,-82.520,-161.621,0.000
1732318737.070,-106.934,-153.320,-349.121,-165.039,0.000
1732318737.075,-114.746,-126.465,-215.332,-166.016,0.000
1732318737.079,-131.836,-88.379,88.867,-139.648,0.000
1732318737.083,-115.234,-110.840,17.578,-117.676,0.000
1732318737.087,-92.285,-128.418,-111.816,-127.930,0.000
1732318737.090,-75.684,-132.812,-145.996,-128.418,0.000
1732318737.094,-80.566,-138.672,-114.746,-97.656,0.000
1732318737.098,-88.379,-126.465,-52.246,-64.453,0.000
1732318737.102,-76.660,-133.789,-144.531,-83.008,0.000
1732318737.106,-71.777,-130.371,-153.809,-123.047,0.000
1732318737.110,-81.055,-100.586,39.062,-108.887,0.000
1732318737.114,-78.613,-125.000,33.203,-78.613,0.000
1732318737.117,-61.523,-162.109,-245.605,-75.195,0.000
1732318737.122,-57.617,-118.164,-146.973,-89.355,0.000
1732318737.126,-50.293,-112.793,28.809,-83.008,0.000
1732318737.130,-52.734,-109.863,51.758,-76.660,0.000
1732318737.134,-62.500,-99.609,78.613,-91.309,0.000
1732318737.138,-54.688,-131.836,-86.914,-91.309,0.000
1732318737.141,-58.105,-118.164,-131.836,-83.496,0.000
1732318737.145,-72.266,-75.684,71.289,-77.637,0.000
1732318737.149,-68.848,-94.727,96.191,-78.613,0.000
1732318737.153,-62.012,-114.746,-15.137,-97.656,0.000
1732318737.157,-68.359,-84.961,106.934,-101.562,0.000
1732318737.161,-64.941,-130.859,-42.480,-73.730,0.000
1732318737.165,-72.754,-136.719,-111.328,-70.801,0.000
1732318737.169,-80.566,-87.891,67.871,-117.676,0.000
1732318737.173,-74.707,-102.051,31.738,-127.930,0.000
1732318737.177,-85.449,-99.121,129.395,-100.586,0.000
1732318737.181,-79.102,-112.793,115.723,-97.168,0.000
1732318737.185,-67.871,-137.207,-106.445,-105.469,0.000
1732318737.189,-79.102,-125.488,-158.203,-112.305,0.000
1732318737.192,-85.938,-114.746,-51.270,-105.469,0.000
1732318737.196,-95.703,-94.238,71.289,-96.680,0.000
1732318737.200,-103.516,-73.730,163.086,-119.629,0.000
1732318737.204,-72.266,-116.211,24.902,-139.160,0.000
1732318737.208,-61.523,-151.855,-168.945,-110.352,0.000
1732318737.212,-93.262,-83.496,52.246,-104.004,0.000
1732318737.216,-94.727,-62.012,219.238,-117.676,0.000
1732318737.220,-87.402,-98.145,97.168,-128.906,0.000
1732318737.224,-93.262,-98.145,92.285,-131.348,0.000
1732318737.228,-89.355,-109.863,92.773,-106.934,0.000
1732318737.232,-99.121,-118.652,80.566,-112.305,0.000
1732318737.236,-98.145,-121.582,27.344,-132.812,0.000
1732318737.239,-89.355,-117.676,-27.344,-124.023,0.000
1732318737.243,-94.727,-99.121,64.453,-102.051,0.000
1732318737.247,-109.863,-72.754,212.891,-107.422,0.000
1732318737.251,-99.609,-130.859,-56.152,-107.910,0.000
1732318737.255,-86.914,-140.625,-286.621,-113.770,0.000
1732318737.259,-103.516,-62.500,-20.508,-137.207,0.000
1732318737.263,-110.840,-73.730,32.227,-122.559,0.000
1732318737.267,-102.539,-109.863,-152.832,-117.676,0.000
1732318737.271,-97.168,-115.723,-267.578,-130.859,0.000
1732318737.275,-104.980,-94.727,-244.141,-126.953,0.000
1732318737.279,-118.652,-79.102,-170.410,-116.211,0.000
1732318737.283,-123.047,-100.586,-211.914,-111.328,0.000
1732318737.286,-112.793,-109.863,-324.707,-112.305,0.000
1732318737.290,-111.816,-91.797,-290.039,-124.512,0.000
1732318737.294,-119.629,-90.820,-198.730,-129.883,0.000
1732318737.298,-109.863,-125.488,-316.895,-109.863,0.000
1732318737.302,-117.188,-91.797,-291.992,-139.160,0.000
1732318737.306,-128.906,-79.590,-176.270,-166.016,0.000
1732318737.310,-133.301,-81.543,-121.582,-143.066,0.000
1732318737.314,-134.766,-69.824,-53.223,-141.602,0.000
1732318737.318,-125.488,-116.699,-209.473,-142.090,0.000
1732318737.322,-127.441,-134.766,-315.430,-144.531,0.000
1732318737.326,-138.672,-115.723,-223.633,-146.973,0.000
1732318737.329,-147.949,-119.141,-223.145,-135.254,0.000
1732318737.333,-148.438,-120.605,-251.953,-142.090,0.000
1732318737.337,-151.367,-105.469,-176.758,-163.086,0.000
1732318737.341,-138.184,-148.438,-328.125,-147.461,0.000
1732318737.345,-134.766,-136.230,-332.520,-144.531,0.000
1732318737.349,-145.020,-65.918,-34.180,-174.805,0.000
1732318737.353,-131.836,-84.961,-88.379,-173.828,0.000
1732318737.357,-126.953,-93.750,-156.738,-159.668,0.000
1732318737.361,-136.230,-91.309,-113.770,-145.996,0.000
1732318737.365,-140.625,-97.656,-124.023,-146.484,0.000
1732318737.369,-136.719,-94.238,-133.789,-152.832,0.000
1732318737.372,-136.719,-93.262,-153.809,-156.250,0.000
1732318737.376,-152.344,-104.004,-229.980,-153.320,0.000
1732318737.380,-162.109,-87.402,-181.641,-163.086,0.000
1732318737.384,-153.809,-93.262,-180.176,-179.199,0.000
1732318737.388,-151.855,-135.742,-356.934,-165.527,0.000
1732318737.392,-173.828,-98.145,-206.543,-166.504,0.000
1732318737.396,-194.336,-71.289,15.625,-178.711,0.000
1732318737.399,-192.383,-97.656,-49.316,-179.688,0.000
1732318737.404,-187.500,-93.750,-85.938,-192.871,0.000
1732318737.408,-183.105,-114.746,-142.578,-186.523,0.000
1732318737.412,-198.242,-116.699,-90.332,-166.504,0.000
1732318737.415,-220.703,-93.750,-15.137,-182.129,0.000
1732318737.419,-203.613,-121.582,-123.535,-189.941,0.000
1732318737.423,-180.176,-143.066,-225.586,-171.387,0.000
1732318737.427,-186.523,-105.469,-126.465,-155.762,0.000
1732318737.431,-185.059,-123.047,-162.109,-144.043,0.000
1732318737.435,-172.363,-139.648,-247.070,-153.809,0.000
1732318737.439,-166.016,-90.820,-35.645,-177.246,0.000
1732318737.442,-169.434,-99.609,-32.715,-162.109,0.000
1732318737.446,-187.012,-92.285,40.039,-152.832,0.000
1732318737.451,-181.152,-108.887,103.516,-167.969,0.000
1732318737.454,-155.273,-135.742,-41.992,-179.199,0.000
1732318737.458,-154.297,-118.652,-8.789,-160.645,0.000
1732318737.462,-169.922,-106.934,143.066,-138.672,0.000
1732318737.466,-152.344,-130.371,92.773,-143.066,0.000
1732318737.470,-131.348,-158.203,-67.383,-131.348,0.000
1732318737.474,-125.977,-153.809,-67.871,-113.281,0.000
1732318737.478,-120.117,-151.855,-125.000,-99.121,0.000
1732318737.481,-139.160,-115.234,6.348,-113.281,0.000
1732318737.485,-142.578,-99.121,174.316,-130.371,0.000
1732318737.489,-127.930,-106.445,109.375,-124.512,0.000
1732318737.493,-135.742,-86.426,177.246,-128.418,0.000
1732318737.497,-138.672,-99.121,139.160,-113.770,0.000
1732318737.501,-125.000,-114.746,41.992,-107.910,0.000
1732318737.505,-113.770,-97.168,108.398,-119.141,0.000
1732318737.509,-109.375,-91.797,142.090,-116.699,0.000
1732318737.513,-119.629,-97.168,145.508,-115.234,0.000
1732318737.517,-133.789,-113.281,46.387,-108.887,0.000
1732318737.521,-117.676,-146.973,-171.875,-104.004,0.000
1732318737.524,-118.164,-127.930,-163.086,-111.816,0.000
1732318737.528,-139.160,-58.594,150.391,-117.676,0.000
1732318737.532,-142.578,-83.008,170.410,-115.723,0.000
1732318737.536,-132.812,-102.051,59.082,-134.277,0.000
1732318737.540,-125.488,-102.539,19.531,-129.883,0.000
1732318737.544,-139.160,-112.305,-3.906,-115.723,0.000
1732318737.548,-152.832,-92.773,48.340,-121.094,0.000
1732318737.552,-135.254,-97.656,17.090,-122.070,0.000
1732318737.556,-119.141,-131.836,-117.676,-120.117,0.000
1732318737.560,-133.301,-118.164,-109.863,-120.117,0.000
1732318737.563,-135.742,-98.633,-48.828,-109.375,0.000
1732318737.567,-112.793,-128.418,-239.746,-83.496,0.000
1732318737.571,-102.539,-100.586,-220.703,-92.773,0.000
1732318737.575,-117.676,-52.734,15.137,-106.934,0.000
1732318737.579,-123.047,-54.199,40.527,-91.797,0.000
1732318737.583,-115.723,-63.477,17.578,-104.980,0.000
1732318737.586,-97.656,-88.379,-94.238,-122.070,0.000
1732318737.591,-92.773,-89.355,-130.859,-116.699,0.000
1732318737.595,-111.328,-56.152,-12.695,-122.559,0.000
1732318737.598,-118.164,-52.734,-33.691,-128.906,0.000
1732318737.602,-111.816,-56.152,-84.961,-132.324,0.000
1732318737.606,-116.699,-54.688,-60.547,-137.695,0.000
1732318737.610,-120.117,-92.773,-211.914,-119.629,0.000
1732318737.614,-125.000,-90.820,-277.832,-111.328,0.000
1732318737.618,-135.254,-41.016,-86.426,-136.719,0.000
1732318737.622,-129.395,-33.691,-30.762,-142.578,0.000
1732318737.625,-137.695,-32.715,-20.996,-141.113,0.000
1732318737.629,-150.391,-39.551,4.883,-143.555,0.000
1732318737.633,-127.441,-84.961,-179.199,-135.742,0.000
1732318737.638,-115.723,-85.938,-202.637,-139.160,0.000
1732318737.642,-130.371,-64.941,-16.602,-142.090,0.000
1732318737.646,-159.180,-72.754,1.465,-154.297,0.000
1732318737.649,-181.152,-76.660,-13.184,-173.340,0.000
1732318737.653,-172.363,-90.820,-100.586,-176.758,0.000
1732318737.657,-176.758,-103.027,-185.547,-172.852,0.000
1732318737.661,-195.312,-80.078,-75.195,-175.781,0.000
1732318737.665,-186.035,-73.730,-46.387,-175.781,0.000
1732318737.669,-156.738,-71.289,-76.660,-163.086,0.000
1732318737.673,-146.973,-64.453,-13.672,-155.762,0.000
1732318737.676,-156.250,-94.238,-81.055,-152.832,0.000
1732318737.680,-168.457,-89.844,-136.230,-161.621,0.000
1732318737.685,-166.992,-52.246,-20.508,-185.547,0.000
1732318737.689,-152.832,-62.988,-1.953,-192.871,0.000
1732318737.693,-162.109,-72.754,-22.461,-182.617,0.000
1732318737.697,-174.316,-54.688,59.082,-179.688,0.000
1732318737.700,-164.551,-81.543,-24.902,-178.223,0.000
1732318737.704,-151.855,-104.980,-184.082,-157.227,0.000
1732318737.708,-167.969,-87.402,-123.535,-161.621,0.000
1732318737.712,-203.613,-81.055,-22.949,-188.477,0.000
1732318737.716,-194.336,-92.285,-32.227,-198.242,0.000
1732318737.720,-178.711,-107.910,-68.359,-211.426,0.000
1732318737.724,-175.293,-158.203,-287.109,-199.219,0.000
1732318737.727,-189.941,-147.461,-286.621,-190.918,0.000
1732318737.732,-199.219,-100.098,-26.855,-210.938,0.000
1732318737.736,-182.617,-114.258,-77.148,-203.125,0.000
1732318737.740,-169.434,-93.750,-33.691,-190.430,0.000
1732318737.744,-174.316,-90.332,6.348,-177.246,0.000
1732318737.748,-179.688,-101.074,-80.078,-169.922,0.000
1732318737.751,-163.574,-92.285,-90.332,-181.641,0.000
1732318737.755,-159.668,-89.844,-59.570,-191.895,0.000
1732318737.759,-166.016,-97.656,-83.008,-187.012,0.000
1732318737.763,-181.152,-78.125,25.391,-190.430,0.000
1732318737.767,-174.805,-89.355,33.203,-200.195,0.000
1732318737.771,-162.598,-127.930,-222.656,-187.012,0.000
1732318737.775,-184.082,-77.637,-94.727,-203.613,0.000
1732318737.779,-206.055,-63.965,117.188,-215.820,0.000
1732318737.783,-214.355,-94.238,34.668,-202.637,0.000
1732318737.787,-196.289,-108.887,-3.906,-208.008,0.000
1732318737.791,-179.688,-143.555,-83.496,-194.336,0.000
1732318737.795,-187.500,-136.230,-60.547,-196.777,0.000
1732318737.799,-187.988,-115.234,17.578,-206.543,0.000
1732318737.802,-176.758,-112.305,-18.555,-201.660,0.000
1732318737.806,-171.875,-101.074,-11.230,-189.941,0.000
1732318737.810,-179.199,-76.172,75.684,-187.500,0.000
1732318737.814,-170.410,-137.695,-141.602,-174.316,0.000
1732318737.818,-155.762,-147.949,-279.297,-198.242,0.000
1732318737.822,-153.320,-65.430,-21.973,-232.422,0.000
1732318737.826,-154.297,-78.125,-26.855,-210.938,0.000
1732318737.830,-173.828,-75.195,12.695,-207.031,0.000
1732318737.834,-157.715,-81.055,5.859,-194.824,0.000
1732318737.838,-133.789,-101.562,-134.277,-188.477,0.000
1732318737.842,-142.578,-89.355,-100.586,-197.266,0.000
1732318737.846,-151.855,-98.145,-114.258,-187.988,0.000
1732318737.849,-151.367,-111.816,-189.941,-181.641,0.000
1732318737.853,-138.672,-99.609,-136.230,-184.082,0.000
1732318737.857,-126.953,-100.586,-104.980,-178.711,0.000
1732318737.861,-140.625,-115.234,-212.402,-154.297,0.000
1732318737.865,-150.391,-81.055,-114.746,-174.316,0.000
1732318737.869,-133.301,-75.684,26.367,-191.895,0.000
1732318737.873,-118.164,-103.516,-63.477,-177.246,0.000
1732318737.877,-123.535,-98.145,-43.457,-181.641,0.000
1732318737.881,-128.906,-111.816,-63.477,-158.691,0.000
1732318737.885,-119.141,-117.188,-128.906,-133.789,0.000
1732318737.889,-107.422,-83.008,-50.293,-145.020,0.000
1732318737.893,-101.562,-88.379,-120.117,-166.504,0.000
1732318737.896,-115.723,-76.172,-97.168,-167.480,0.000
1732318737.900,-109.863,-33.691,47.852,-157.715,0.000
1732318737.904,-62.012,-91.797,-187.012,-130.859,0.000
1732318737.908,-49.805,-103.516,-326.172,-118.164,0.000
1732318737.912,-92.773,-26.367,32.227,-127.930,0.000
1732318737.916,-98.145,-42.969,117.188,-115.234,0.000
1732318737.920,-81.055,-59.082,30.273,-115.234,0.000
1732318737.924,-67.383,-57.129,5.371,-124.023,0.000
1732318737.928,-64.941,-62.988,-32.227,-134.277,0.000
1732318737.932,-91.309,-51.758,27.832,-130.859,0.000
1732318737.936,-94.238,-63.477,34.668,-117.676,0.000
1732318737.940,-78.125,-97.656,-98.145,-98.633,0.000
1732318737.943,-83.984,-103.516,-131.348,-92.285,0.000
1732318737.947,-89.844,-94.238,-62.500,-128.418,0.000
1732318737.951,-76.660,-104.492,-157.715,-129.395,0.000
1732318737.955,-69.336,-76.660,-48.340,-90.332,0.000
1732318737.959,-79.102,-56.641,129.395,-106.445,0.000
1732318737.963,-144.531,-69.824,79.590,-163.574,0.000
1732318737.967,-190.430,-87.891,1.465,-208.496,0.000
1732318737.971,-171.875,-124.023,-126.953,-223.633,0.000
1732318737.975,-174.316,-126.465,-83.008,-218.750,0.000
1732318737.979,-216.309,-101.074,88.867,-225.098,0.000
1732318737.983,-231.445,-117.188,101.562,-251.465,0.000
1732318737.986,-229.492,-142.090,-3.418,-274.414,0.000
1732318737.990,-252.930,-146.973,-9.766,-270.020,0.000
1732318737.994,-240.234,-174.805,-68.359,-264.160,0.000
1732318737.998,-237.793,-155.762,-71.777,-295.898,0.000
1732318738.002,-247.559,-104.492,185.547,-283.203,0.000
1732318738.006,-224.609,-129.395,258.789,-270.020,0.000
1732318738.010,-229.980,-131.348,262.207,-279.785,0.000
1732318738.014,-232.910,-140.625,265.625,-253.418,0.000
1732318738.018,-221.680,-155.762,226.562,-253.418,0.000
1732318738.022,-210.449,-140.137,279.785,-264.648,0.000
1732318738.026,-199.707,-151.855,277.832,-237.305,0.000
1732318738.029,-209.961,-143.555,350.586,-233.887,0.000
1732318738.033,-182.129,-140.625,429.199,-246.582,0.000
1732318738.037,-155.762,-153.320,430.176,-241.699,0.000
1732318738.041,-165.039,-167.969,315.918,-224.121,0.000
1732318738.045,-163.574,-120.605,403.320,-216.309,0.000
1732318738.049,-163.086,-73.730,573.242,-214.844,0.000
1732318738.053,-149.902,-82.031,531.250,-194.336,0.000
1732318738.056,-98.633,-74.707,556.152,-176.270,0.000
1732318738.061,-78.125,-77.148,539.062,-150.391,0.000
1732318738.065,-107.422,-59.570,562.988,-136.230,0.000
1732318738.068,-101.562,-24.902,610.840,-144.531,0.000
1732318738.072,-68.359,-21.484,601.562,-156.738,0.000
1732318738.076,-30.762,-30.762,607.422,-149.902,0.000
1732318738.080,-41.504,-21.484,624.023,-119.141,0.000
1732318738.084,-27.832,-21.484,558.105,-98.145,0.000
1732318738.088,-21.484,-4.883,580.566,-112.305,0.000
1732318738.092,-47.852,77.637,691.895,-141.602,0.000
1732318738.095,-22.949,107.910,677.734,-145.508,0.000
1732318738.099,-24.414,136.230,691.406,-145.508,0.000
1732318738.103,-0.488,173.340,693.848,-141.113,0.000
1732318738.107,36.621,207.031,683.105,-129.883,0.000
1732318738.111,35.645,258.301,697.266,-127.441,0.000
1732318738.115,-5.859,265.137,682.129,-112.793,0.000
1732318738.119,6.836,277.832,665.527,-116.699,0.000
1732318738.123,67.871,321.289,670.898,-129.395,0.000
1732318738.127,19.531,353.516,672.852,-127.930,0.000
1732318738.131,15.137,371.094,645.996,-125.977,0.000
1732318738.134,108.398,452.148,699.707,-129.395,0.000
1732318738.138,82.520,496.582,746.094,-136.719,0.000
1732318738.142,22.461,460.449,727.539,-134.277,0.000
1732318738.146,2.930,471.680,753.418,-160.645,0.000
1732318738.150,37.109,449.219,754.395,-162.598,0.000
1732318738.154,66.895,433.105,760.742,-160.156,0.000
1732318738.158,83.008,449.707,786.621,-163.086,0.000
1732318738.162,55.664,446.777,806.641,-135.254,0.000
1732318738.166,75.195,427.246,815.430,-111.816,0.000
1732318738.170,100.098,406.250,822.754,-116.699,0.000
1732318738.173,98.633,376.953,791.504,-123.535,0.000
1732318738.177,102.539,391.602,794.922,-150.879,0.000
1732318738.181,34.180,435.547,842.285,-174.805,0.000
1732318738.185,-14.160,422.852,838.379,-163.086,0.000
1732318738.189,-32.227,405.273,833.984,-170.410,0.000
1732318738.193,-44.434,396.973,833.984,-178.711,0.000
1732318738.197,-41.992,375.488,832.520,-164.062,0.000
1732318738.201,-25.391,366.699,832.520,-164.551,0.000
1732318738.205,-10.742,352.051,838.379,-199.219,0.000
1732318738.209,-5.859,317.383,841.797,-223.145,0.000
1732318738.213,-20.020,284.180,846.191,-244.141,0.000
1732318738.217,-16.113,240.234,838.867,-256.348,0.000
1732318738.221,1.953,193.359,829.590,-243.652,0.000
1732318738.224,-3.418,170.898,834.961,-250.000,0.000
1732318738.228,-8.789,167.480,833.984,-267.090,0.000
1732318738.232,2.441,159.668,831.055,-258.789,0.000
1732318738.236,21.484,138.672,812.988,-236.328,0.000
1732318738.240,21.973,87.402,783.203,-222.168,0.000
1732318738.244,21.484,36.621,759.277,-216.797,0.000
1732318738.248,17.578,24.902,754.883,-247.070,0.000
1732318738.252,23.926,-13.184,727.539,-242.676,0.000
1732318738.256,49.805,-64.453,672.363,-200.684,0.000
1732318738.260,65.430,-101.074,634.277,-190.430,0.000
1732318738.264,73.242,-144.531,569.824,-201.660,0.000
1732318738.268,66.895,-199.707,423.828,-208.984,0.000
1732318738.271,61.523,-223.633,326.660,-193.848,0.000
1732318738.275,64.941,-248.047,225.586,-177.734,0.000
1732318738.279,73.242,-280.762,70.312,-181.152,0.000
1732318738.283,56.152,-308.105,-50.781,-192.871,0.000
1732318738.287,41.016,-394.531,-390.625,-181.641,0.000
1732318738.291,27.832,-419.434,-571.777,-181.152,0.000
1732318738.295,14.160,-396.973,-508.301,-192.871,0.000
1732318738.299,13.184,-433.105,-659.668,-201.172,0.000
1732318738.303,-2.930,-448.242,-734.863,-199.219,0.000
1732318738.307,-1.953,-465.332,-759.766,-174.805,0.000
1732318738.311,13.184,-493.164,-813.965,-167.969,0.000
1732318738.315,16.113,-503.906,-867.676,-171.387,0.000
1732318738.318,-22.461,-504.395,-884.277,-181.641,0.000
1732318738.322,-47.852,-509.766,-874.023,-168.945,0.000
1732318738.326,-36.133,-496.094,-854.004,-148.926,0.000
1732318738.330,-18.066,-492.676,-871.094,-133.789,0.000
1732318738.334,-31.738,-500.488,-881.836,-143.555,0.000
1732318738.338,-61.035,-461.426,-825.684,-194.824,0.000
1732318738.342,-47.363,-442.383,-826.172,-204.102,0.000
1732318738.346,-66.895,-439.453,-831.543,-207.031,0.000
1732318738.350,-80.566,-427.246,-816.406,-192.871,0.000
1732318738.354,-54.688,-443.359,-841.309,-175.293,0.000
1732318738.358,-48.828,-422.852,-836.426,-177.734,0.000
1732318738.362,-36.621,-388.184,-789.062,-177.734,0.000
1732318738.365,2.441,-375.488,-755.371,-179.199,0.000
1732318738.369,-6.348,-352.539,-739.746,-162.598,0.000
1732318738.373,-62.988,-354.980,-742.188,-166.992,0.000
1732318738.377,-60.547,-384.766,-789.062,-166.016,0.000
1732318738.381,-50.293,-352.051,-747.070,-145.020,0.000
1732318738.385,-54.688,-302.246,-653.809,-145.996,0.000
1732318738.389,-48.828,-315.430,-673.828,-163.086,0.000
1732318738.393,-18.555,-300.781,-651.367,-171.387,0.000
1732318738.397,-13.672,-288.574,-647.949,-160.156,0.000
1732318738.401,-85.449,-295.898,-659.180,-160.645,0.000
1732318738.405,-90.332,-292.480,-642.578,-148.926,0.000
1732318738.409,-48.340,-305.664,-664.551,-138.184,0.000
1732318738.412,-59.082,-306.152,-655.762,-149.902,0.000
1732318738.416,-73.730,-283.203,-622.559,-148.438,0.000
1732318738.420,-68.359,-270.020,-614.746,-138.184,0.000
1732318738.424,-59.570,-287.109,-640.137,-129.883,0.000
1732318738.428,-81.055,-255.859,-541.992,-145.020,0.000
1732318738.432,-91.797,-242.676,-546.387,-153.320,0.000
1732318738.436,-99.609,-260.254,-596.680,-148.438,0.000
1732318738.440,-93.750,-246.094,-556.641,-159.180,0.000
1732318738.444,-71.289,-258.301,-613.281,-159.668,0.000
1732318738.448,-103.516,-259.766,-632.324,-160.156,0.000
1732318738.452,-107.910,-229.004,-585.938,-159.180,0.000
1732318738.455,-77.148,-224.609,-612.305,-150.391,0.000
1732318738.459,-66.895,-216.309,-580.078,-152.832,0.000
1732318738.463,-67.871,-198.730,-513.184,-155.273,0.000
1732318738.467,-63.965,-238.770,-623.535,-125.488,0.000
1732318738.471,-37.598,-241.699,-630.371,-113.770,0.000
1732318738.475,-53.711,-195.312,-484.863,-138.672,0.000
1732318738.479,-90.820,-201.660,-494.629,-150.391,0.000
1732318738.483,-90.820,-203.613,-506.836,-157.227,0.000
1732318738.487,-83.008,-231.934,-564.453,-145.508,0.000
1732318738.491,-70.801,-263.672,-633.789,-137.207,0.000
1732318738.495,-90.820,-234.863,-542.480,-165.527,0.000
1732318738.498,-108.887,-220.703,-502.930,-170.898,0.000
1732318738.502,-98.633,-236.816,-584.473,-141.113,0.000
1732318738.506,-85.938,-231.445,-604.980,-144.531,0.000
1732318738.510,-56.152,-242.676,-615.234,-144.531,0.000
1732318738.514,-65.430,-264.648,-604.492,-150.879,0.000
1732318738.518,-124.023,-242.676,-506.348,-152.344,0.000
1732318738.522,-98.633,-216.797,-487.793,-114.746,0.000
1732318738.525,-62.500,-213.379,-544.922,-124.512,0.000
1732318738.530,-119.141,-208.496,-521.973,-186.035,0.000
1732318738.534,-153.809,-230.469,-585.938,-198.730,0.000
1732318738.538,-114.258,-226.562,-610.840,-182.129,0.000
1732318738.541,-99.609,-193.848,-495.117,-193.848,0.000
1732318738.545,-121.582,-215.820,-525.879,-189.941,0.000
1732318738.549,-68.359,-237.305,-581.055,-192.383,0.000
1732318738.553,-81.543,-229.004,-569.336,-186.035,0.000
1732318738.557,-165.039,-238.281,-628.906,-169.922,0.000
1732318738.561,-145.996,-206.055,-564.453,-200.195,0.000
1732318738.565,-125.977,-150.879,-383.301,-222.168,0.000
1732318738.568,-114.746,-170.410,-400.879,-205.566,0.000
1732318738.572,-108.398,-185.059,-433.105,-202.148,0.000
1732318738.577,-88.867,-177.734,-443.359,-193.848,0.000
1732318738.580,-99.609,-187.500,-473.145,-199.219,0.000
1732318738.584,-94.238,-177.734,-467.285,-179.688,0.000
1732318738.588,-81.543,-173.340,-443.359,-171.875,0.000
1732318738.592,-76.660,-203.125,-460.938,-181.152,0.000
1732318738.596,-83.496,-211.426,-489.746,-172.852,0.000
1732318738.600,-103.516,-205.566,-480.957,-195.312,0.000
1732318738.604,-114.258,-236.816,-550.781,-176.758,0.000
1732318738.608,-124.023,-222.168,-495.605,-163.086,0.000
1732318738.611,-116.699,-207.031,-335.449,-179.688,0.000
1732318738.615,-104.492,-193.359,-327.637,-176.270,0.000
1732318738.619,-90.820,-183.594,-331.055,-166.016,0.000
1732318738.623,-85.938,-232.422,-421.875,-153.809,0.000
1732318738.627,-106.445,-241.699,-464.355,-164.551,0.000
1732318738.631,-129.883,-242.188,-378.906,-175.293,0.000
1732318738.635,-122.070,-258.789,-404.297,-158.691,0.000
1732318738.639,-118.652,-269.043,-462.891,-137.207,0.000
1732318738.643,-130.371,-273.438,-479.004,-131.348,0.000
1732318738.647,-136.719,-280.273,-539.062,-118.652,0.000
1732318738.650,-143.555,-282.715,-547.363,-109.375,0.000
1732318738.654,-130.371,-249.023,-380.859,-141.113,0.000
1732318738.658,-119.141,-267.090,-361.328,-144.043,0.000
1732318738.662,-144.531,-298.828,-378.418,-137.695,0.000
1732318738.666,-136.719,-313.965,-427.246,-137.695,0.000
1732318738.670,-142.578,-310.547,-452.637,-144.531,0.000
1732318738.674,-180.664,-313.477,-382.812,-150.879,0.000
1732318738.678,-177.246,-317.383,-352.539,-145.020,0.000
1732318738.682,-166.504,-320.801,-339.844,-125.977,0.000
1732318738.686,-204.102,-332.520,-349.609,-123.535,0.000
1732318738.689,-187.012,-337.402,-363.770,-135.254,0.000
1732318738.693,-150.391,-345.703,-464.844,-115.723,0.000
1732318738.697,-159.668,-329.590,-387.207,-138.672,0.000
1732318738.701,-174.805,-312.988,-197.266,-161.133,0.000
1732318738.705,-199.219,-327.637,-197.754,-137.207,0.000
1732318738.709,-211.914,-346.191,-217.773,-134.766,0.000
1732318738.713,-178.223,-359.375,-280.273,-147.461,0.000
1732318738.717,-161.133,-360.840,-342.285,-154.785,0.000
1732318738.721,-214.355,-357.422,-312.012,-135.742,0.000
1732318738.725,-177.246,-355.469,-287.598,-114.258,0.000
1732318738.728,-193.848,-351.074,-223.145,-144.531,0.000
1732318738.732,-274.414,-348.633,-149.902,-184.082,0.000
1732318738.736,-236.816,-382.324,-300.781,-166.992,0.000
1732318738.740,-269.531,-392.578,-297.363,-192.871,0.000
1732318738.744,-302.734,-342.773,-17.578,-250.977,0.000
1732318738.748,-293.945,-327.637,27.832,-225.586,0.000
1732318738.752,-289.551,-304.688,29.297,-226.562,0.000
1732318738.755,-284.668,-324.707,58.105,-259.277,0.000
1732318738.759,-324.707,-352.051,-40.039,-260.254,0.000
1732318738.764,-322.754,-297.852,52.246,-257.324,0.000
1732318738.768,-311.523,-264.648,222.168,-249.512,0.000
1732318738.772,-271.973,-259.277,293.945,-251.953,0.000
1732318738.775,-203.613,-245.117,484.375,-249.512,0.000
1732318738.779,-231.445,-242.676,656.738,-207.031,0.000
1732318738.783,-279.297,-250.000,699.219,-186.035,0.000
1732318738.787,-227.539,-229.004,753.418,-202.148,0.000
1732318738.791,-180.664,-184.570,827.148,-184.082,0.000
1732318738.795,-179.688,-120.117,879.395,-174.805,0.000
1732318738.799,-155.762,-75.684,910.645,-200.195,0.000
1732318738.803,-209.961,-84.961,917.969,-188.477,0.000
1732318738.806,-182.129,-57.129,921.387,-166.016,0.000
1732318738.811,-154.785,8.789,930.176,-176.270,0.000
1732318738.815,-214.844,27.832,936.523,-173.340,0.000
1732318738.819,-158.691,47.363,939.453,-183.105,0.000
1732318738.823,-128.418,85.938,945.801,-179.688,0.000
1732318738.826,-149.414,102.051,951.660,-168.457,0.000
1732318738.830,-205.078,111.816,956.055,-154.297,0.000
1732318738.834,-170.898,158.691,965.820,-164.062,0.000
1732318738.838,-110.352,186.035,966.309,-195.801,0.000
1732318738.842,-84.473,206.055,965.332,-182.129,0.000
1732318738.846,-175.781,236.328,967.285,-167.969,0.000
1732318738.850,-178.711,223.145,961.914,-174.316,0.000
1732318738.853,-115.234,227.051,965.332,-167.969,0.000
1732318738.858,-100.098,269.043,968.750,-155.762,0.000
1732318738.862,-98.633,291.992,966.797,-157.715,0.000
1732318738.866,-125.488,284.668,967.285,-169.922,0.000
1732318738.870,-122.070,258.789,966.309,-156.250,0.000
1732318738.873,-148.438,253.906,966.309,-140.625,0.000
1732318738.877,-195.312,253.906,966.309,-137.207,0.000
1732318738.881,-200.195,265.625,964.844,-142.090,0.000
1732318738.885,-208.008,270.020,963.379,-159.180,0.000
1732318738.889,-246.582,250.000,963.379,-179.688,0.000
1732318738.893,-257.812,225.586,959.961,-171.875,0.000
1732318738.897,-277.832,200.195,956.055,-161.621,0.000
1732318738.900,-348.145,201.660,964.355,-183.105,0.000
1732318738.905,-351.562,218.262,968.750,-227.539,0.000
1732318738.909,-449.707,190.918,967.773,-226.562,0.000
1732318738.913,-538.086,161.621,968.262,-181.152,0.000
1732318738.917,-424.316,124.512,968.262,-169.922,0.000
1732318738.920,-373.047,63.965,966.309,-184.570,0.000
1732318738.924,-401.367,-2.930,960.449,-190.430,0.000
1732318738.928,-381.348,-76.660,954.590,-177.246,0.000
1732318738.932,-316.406,-144.043,948.730,-149.414,0.000
1732318738.936,-210.938,-162.598,937.988,-131.836,0.000
1732318738.940,-125.488,-213.379,921.387,-120.605,0.000
1732318738.944,-110.840,-261.719,909.180,-116.699,0.000
1732318738.947,-97.168,-250.488,896.484,-135.254,0.000
1732318738.952,-45.410,-289.062,864.746,-139.648,0.000
1732318738.956,39.551,-330.566,811.523,-117.188,0.000
1732318738.960,102.051,-361.328,762.695,-80.566,0.000
1732318738.963,103.516,-379.395,724.121,-98.633,0.000
1732318738.967,120.117,-409.180,560.059,-117.676,0.000
1732318738.971,165.527,-455.566,273.438,-99.609,0.000
1732318738.975,221.680,-482.910,66.895,-76.172,0.000
1732318738.979,228.027,-513.184,-45.898,-69.336,0.000
1732318738.983,218.262,-559.082,-151.367,-67.871,0.000
1732318738.987,288.574,-581.543,-342.285,-45.410,0.000
1732318738.991,339.844,-575.684,-383.789,-37.109,0.000
1732318738.994,359.375,-612.793,-393.555,-41.504,0.000
1732318738.999,369.629,-640.625,-535.645,-58.105,0.000
1732318739.003,347.168,-652.832,-668.457,-90.820,0.000
1732318739.007,326.660,-682.129,-791.504,-87.891,0.000
1732318739.010,309.082,-680.176,-827.148,-70.801,0.000
1732318739.014,273.438,-675.293,-836.426,-68.848,0.000
1732318739.018,248.535,-692.383,-900.879,-64.453,0.000
1732318739.022,270.020,-690.430,-921.387,-59.570,0.000
1732318739.026,285.645,-679.688,-913.086,-57.617,0.000
1732318739.030,311.035,-706.055,-953.613,-47.363,0.000
1732318739.034,276.367,-725.098,-970.703,-46.875,0.000
1732318739.037,246.582,-697.266,-950.195,-81.055,0.000
1732318739.041,270.020,-706.543,-971.191,-78.125,0.000
1732318739.046,268.555,-721.191,-959.961,-58.105,0.000
1732318739.050,265.137,-725.586,-967.773,-89.355,0.000
1732318739.053,205.566,-746.094,-974.121,-110.352,0.000
1732318739.057,200.195,-734.863,-950.195,-106.445,0.000
1732318739.061,221.191,-725.586,-953.125,-100.098,0.000
1732318739.065,206.543,-734.863,-949.707,-88.379,0.000
1732318739.069,229.980,-724.609,-945.312,-95.703,0.000
1732318739.073,258.789,-717.285,-945.312,-99.121,0.000
1732318739.077,237.305,-708.496,-917.969,-93.262,0.000
1732318739.080,166.016,-696.777,-903.809,-97.656,0.000
1732318739.084,109.863,-684.570,-909.180,-102.539,0.000
1732318739.088,173.340,-672.363,-908.203,-103.516,0.000
1732318739.093,193.848,-662.109,-884.277,-103.027,0.000
1732318739.096,123.047,-649.902,-886.719,-100.098,0.000
1732318739.100,94.727,-652.344,-889.648,-90.332,0.000
1732318739.104,136.719,-643.555,-851.074,-94.727,0.000
1732318739.108,208.008,-630.371,-856.445,-113.281,0.000
1732318739.112,130.371,-631.348,-861.328,-122.559,0.000
1732318739.116,54.688,-623.047,-833.496,-103.027,0.000
1732318739.120,167.480,-610.840,-862.793,-102.539,0.000
1732318739.123,190.430,-581.543,-837.402,-108.398,0.000
1732318739.127,82.520,-554.688,-755.371,-101.074,0.000
1732318739.131,49.805,-569.336,-773.438,-91.309,0.000
1732318739.135,132.324,-551.270,-756.836,-95.703,0.000
1732318739.139,163.574,-546.875,-741.699,-103.516,0.000
1732318739.143,83.008,-546.875,-733.887,-90.820,0.000
1732318739.147,68.359,-505.859,-696.289,-84.961,0.000
1732318739.151,94.727,-517.090,-695.801,-115.234,0.000
1732318739.155,119.141,-533.691,-695.312,-141.602,0.000
1732318739.159,168.457,-504.883,-689.453,-135.742,0.000
1732318739.163,77.148,-510.254,-670.410,-133.301,0.000
1732318739.166,38.574,-527.344,-694.824,-118.164,0.000
1732318739.170,58.594,-486.816,-624.512,-120.605,0.000
1732318739.174,70.312,-457.520,-503.418,-148.438,0.000
1732318739.178,56.152,-451.660,-496.582,-155.273,0.000
1732318739.182,60.059,-457.031,-465.820,-156.250,0.000
1732318739.186,85.449,-462.891,-490.234,-147.461,0.000
1732318739.190,39.551,-430.664,-518.066,-125.000,0.000
1732318739.194,56.641,-401.855,-406.250,-134.277,0.000
1732318739.198,-40.527,-416.504,-353.516,-159.668,0.000
1732318739.202,-76.172,-440.918,-405.273,-158.691,0.000
1732318739.206,17.578,-428.223,-440.430,-163.086,0.000
1732318739.209,-12.207,-410.645,-452.637,-162.598,0.000
1732318739.213,-44.922,-376.953,-397.461,-152.344,0.000
1732318739.217,-95.215,-333.496,-283.691,-165.527,0.000
1732318739.221,-132.812,-339.844,-270.996,-164.062,0.000
1732318739.225,-95.215,-307.129,-265.625,-150.391,0.000
1732318739.229,-148.438,-292.969,-227.539,-135.742,0.000
1732318739.233,-190.918,-321.777,-281.250,-151.367,0.000
1732318739.237,-151.855,-293.457,-254.395,-187.500,0.000
1732318739.241,-142.578,-243.164,-150.391,-194.336,0.000
1732318739.245,-306.641,-228.027,-118.164,-151.855,0.000
1732318739.248,-398.438,-233.887,-115.723,-149.902,0.000
1732318739.252,-311.523,-226.074,-120.117,-158.203,0.000
1732318739.256,-268.555,-222.168,-145.996,-138.672,0.000
1732318739.260,-329.102,-183.105,-82.031,-138.672,0.000
1732318739.264,-350.586,-138.672,37.598,-152.832,0.000
1732318739.268,-278.320,-133.789,39.551,-173.340,0.000
1732318739.272,-304.688,-119.629,56.641,-169.922,0.000
1732318739.275,-382.812,-128.418,36.621,-154.785,0.000
1732318739.280,-428.223,-117.188,64.941,-159.180,0.000
1732318739.284,-462.891,-101.562,122.559,-175.781,0.000
1732318739.287,-378.418,-113.770,122.070,-205.078,0.000
1732318739.291,-367.188,-124.023,165.039,-223.145,0.000
1732318739.295,-439.453,-125.488,209.473,-210.449,0.000
1732318739.299,-393.066,-121.094,134.277,-189.453,0.000
1732318739.303,-395.020,-123.535,128.906,-203.613,0.000
1732318739.307,-338.867,-108.887,261.230,-224.121,0.000
1732318739.311,-255.859,-86.914,283.691,-200.684,0.000
1732318739.315,-176.270,-82.520,298.828,-187.012,0.000
1732318739.318,-113.770,-120.605,239.258,-209.961,0.000
1732318739.322,-86.914,-155.273,129.395,-217.285,0.000
1732318739.327,-37.598,-144.043,147.461,-207.031,0.000
1732318739.331,5.859,-136.719,159.668,-200.684,0.000
1732318739.335,43.457,-164.551,36.133,-203.613,0.000
1732318739.338,102.051,-189.941,-60.547,-218.262,0.000
1732318739.342,126.465,-214.844,-141.602,-208.008,0.000
1732318739.346,130.371,-246.094,-239.746,-194.336,0.000
1732318739.350,150.879,-265.137,-321.777,-210.938,0.000
1732318739.354,192.383,-287.109,-413.574,-221.191,0.000
1732318739.358,227.539,-297.852,-456.055,-221.680,0.000
1732318739.362,260.742,-314.453,-482.910,-219.238,0.000
1732318739.365,247.070,-355.469,-595.215,-211.426,0.000
1732318739.369,260.254,-378.418,-685.547,-215.332,0.000
1732318739.374,312.988,-371.582,-665.039,-227.051,0.000
1732318739.378,332.031,-375.488,-652.832,-225.098,0.000
1732318739.382,316.406,-399.902,-696.777,-216.797,0.000
1732318739.385,306.641,-415.527,-733.398,-217.773,0.000
1732318739.389,331.055,-427.246,-787.598,-208.984,0.000
1732318739.393,326.660,-443.359,-812.988,-194.824,0.000
1732318739.397,297.363,-446.289,-778.320,-196.777,0.000
1732318739.401,281.250,-457.031,-779.297,-187.988,0.000
1732318739.405,288.086,-457.031,-799.316,-191.895,0.000
1732318739.409,274.902,-444.824,-792.480,-201.660,0.000
1732318739.412,267.578,-464.355,-833.008,-170.898,0.000
1732318739.416,260.254,-463.379,-835.449,-167.480,0.000
1732318739.421,268.066,-444.336,-799.316,-200.195,0.000
1732318739.425,302.246,-468.750,-817.383,-177.246,0.000
1732318739.429,259.766,-478.027,-797.852,-163.574,0.000
1732318739.432,203.613,-474.121,-813.477,-177.734,0.000
1732318739.436,238.281,-487.305,-847.168,-189.941,0.000
1732318739.440,258.789,-501.953,-849.609,-176.758,0.000
1732318739.444,239.746,-502.930,-836.426,-170.898,0.000
1732318739.448,235.840,-495.117,-820.312,-166.992,0.000
1732318739.452,259.766,-483.887,-818.359,-160.645,0.000
1732318739.456,328.125,-482.422,-846.191,-175.293,0.000
1732318739.460,339.844,-495.605,-847.168,-162.598,0.000
1732318739.463,231.445,-494.141,-814.941,-168.457,0.000
1732318739.468,192.871,-496.094,-832.031,-168.457,0.000
1732318739.472,270.996,-502.930,-842.285,-124.023,0.000
1732318739.476,284.668,-492.676,-820.312,-147.949,0.000
1732318739.479,278.320,-485.352,-832.031,-162.598,0.000
1732318739.483,286.621,-485.840,-838.867,-135.254,0.000
1732318739.487,283.691,-486.328,-811.035,-137.695,0.000
1732318739.491,286.133,-464.844,-791.992,-145.508,0.000
1732318739.495,232.422,-458.008,-776.367,-151.367,0.000
1732318739.499,209.961,-449.707,-763.672,-145.996,0.000
1732318739.503,248.535,-460.449,-806.152,-133.789,0.000
1732318739.506,254.883,-477.051,-800.781,-130.371,0.000
1732318739.510,244.629,-449.219,-739.746,-145.020,0.000
1732318739.515,245.605,-453.613,-771.484,-143.066,0.000
1732318739.519,244.629,-461.914,-783.691,-156.250,0.000
1732318739.522,229.004,-463.867,-802.246,-162.109,0.000
1732318739.526,205.566,-456.055,-802.734,-149.902,0.000
1732318739.530,189.453,-434.082,-793.945,-149.414,0.000
1732318739.534,193.359,-430.664,-833.008,-138.672,0.000
1732318739.538,243.164,-437.012,-832.031,-141.113,0.000
1732318739.542,243.164,-431.641,-822.754,-157.715,0.000
1732318739.546,186.035,-419.434,-833.008,-153.809,0.000
1732318739.550,193.359,-420.898,-830.078,-140.625,0.000
1732318739.553,203.613,-416.992,-824.707,-158.203,0.000
1732318739.557,196.289,-411.133,-841.797,-165.527,0.000
1732318739.562,178.711,-404.297,-860.352,-156.738,0.000
1732318739.565,142.090,-383.301,-858.398,-174.805,0.000
1732318739.569,154.297,-382.324,-871.094,-166.016,0.000
1732318739.573,184.082,-380.859,-881.348,-156.250,0.000
1732318739.577,136.719,-364.258,-849.609,-171.875,0.000
1732318739.581,95.703,-354.004,-863.770,-151.855,0.000
1732318739.585,108.398,-362.305,-863.770,-166.992,0.000
1732318739.589,121.094,-341.309,-834.961,-200.684,0.000
1732318739.593,96.191,-316.406,-870.117,-163.574,0.000
1732318739.596,54.199,-325.684,-873.535,-134.277,0.000
1732318739.600,38.086,-312.500,-805.664,-152.832,0.000
1732318739.604,51.270,-325.684,-803.223,-169.922,0.000
1732318739.609,30.762,-313.477,-821.777,-177.246,0.000
1732318739.612,-34.180,-270.508,-841.309,-176.270,0.000
1732318739.616,-30.762,-250.000,-847.168,-172.852,0.000
1732318739.620,6.836,-260.254,-829.590,-171.387,0.000
1732318739.624,5.859,-263.672,-840.820,-181.152,0.000
1732318739.628,-20.996,-236.328,-856.934,-170.898,0.000
1732318739.632,-9.277,-209.961,-853.516,-166.504,0.000
1732318739.636,3.418,-189.941,-864.258,-170.898,0.000
1732318739.639,0.488,-198.730,-872.070,-172.852,0.000
1732318739.643,-1.465,-185.059,-826.172,-179.688,0.000
1732318739.647,-40.039,-175.293,-808.105,-173.340,0.000
1732318739.651,-40.039,-174.805,-814.941,-167.480,0.000
1732318739.655,34.180,-156.250,-802.246,-159.668,0.000
1732318739.659,65.430,-166.504,-806.641,-159.180,0.000
1732318739.663,5.371,-156.738,-772.461,-161.133,0.000
1732318739.667,-40.527,-146.973,-729.004,-159.180,0.000
1732318739.671,-19.531,-157.227,-735.840,-171.875,0.000
1732318739.675,-33.691,-165.039,-744.141,-159.180,0.000
1732318739.679,-67.871,-159.180,-706.055,-139.160,0.000
1732318739.682,-59.570,-163.086,-720.703,-132.812,0.000
1732318739.686,-47.363,-154.297,-699.219,-141.113,0.000
1732318739.690,-33.691,-127.441,-580.566,-160.645,0.000
1732318739.694,-42.480,-123.535,-560.547,-143.555,0.000
1732318739.698,-50.293,-114.746,-565.918,-149.414,0.000
1732318739.702,-47.363,-133.789,-590.820,-173.828,0.000
1732318739.706,-51.758,-142.090,-610.840,-157.227,0.000
1732318739.710,-70.312,-134.277,-605.469,-147.949,0.000
1732318739.714,-89.844,-150.391,-617.188,-156.738,0.000
1732318739.718,-77.148,-148.438,-633.789,-155.762,0.000
1732318739.722,-54.199,-147.949,-655.273,-161.621,0.000
1732318739.725,-59.570,-143.555,-640.137,-167.480,0.000
1732318739.729,-69.824,-145.996,-680.176,-160.645,0.000
1732318739.733,-100.586,-131.836,-662.598,-163.086,0.000
1732318739.737,-114.746,-116.699,-582.520,-167.969,0.000
1732318739.741,-88.867,-123.047,-606.934,-159.668,0.000
1732318739.745,-89.355,-133.301,-626.953,-173.340,0.000
1732318739.749,-101.562,-148.926,-661.133,-169.922,0.000
1732318739.753,-88.867,-127.441,-642.090,-166.504,0.000
1732318739.757,-79.590,-127.930,-610.352,-176.270,0.000
1732318739.761,-92.285,-140.625,-613.281,-157.227,0.000
1732318739.764,-113.770,-129.883,-614.258,-146.484,0.000
1732318739.768,-116.699,-149.414,-671.387,-172.363,0.000
1732318739.772,-103.516,-179.199,-754.883,-166.016,0.000
1732318739.776,-118.652,-173.828,-743.652,-156.250,0.000
1732318739.780,-156.738,-135.254,-621.094,-181.152,0.000
1732318739.784,-154.297,-145.508,-617.676,-195.312,0.000
1732318739.788,-123.535,-159.668,-630.371,-186.523,0.000
1732318739.792,-118.164,-153.320,-615.723,-171.875,0.000
1732318739.796,-142.578,-172.852,-630.859,-159.668,0.000
1732318739.800,-160.645,-179.688,-609.863,-171.387,0.000
1732318739.803,-140.137,-168.945,-627.441,-200.684,0.000
1732318739.807,-124.023,-170.410,-663.574,-195.312,0.000
1732318739.811,-142.578,-167.480,-656.738,-175.293,0.000
1732318739.815,-157.715,-175.293,-663.086,-164.551,0.000
1732318739.819,-128.906,-198.730,-729.980,-157.227,0.000
1732318739.823,-128.418,-171.875,-691.895,-163.086,0.000
1732318739.827,-164.062,-141.602,-610.352,-179.199,0.000
1732318739.831,-177.246,-174.805,-673.828,-193.848,0.000
1732318739.834,-164.551,-181.152,-685.059,-195.312,0.000
1732318739.838,-130.859,-182.617,-691.406,-175.781,0.000
1732318739.842,-131.836,-192.383,-698.730,-132.812,0.000
1732318739.846,-156.250,-185.547,-651.855,-147.461,0.000
1732318739.850,-167.480,-210.449,-673.340,-210.449,0.000
1732318739.854,-151.367,-217.285,-680.176,-191.895,0.000
1732318739.858,-135.254,-230.957,-646.484,-170.410,0.000
1732318739.862,-145.996,-260.742,-711.914,-160.645,0.000
1732318739.866,-156.738,-254.883,-707.031,-166.504,0.000
1732318739.870,-138.184,-228.516,-568.848,-195.312,0.000
1732318739.873,-122.070,-229.492,-540.039,-181.152,0.000
1732318739.877,-131.348,-250.977,-522.949,-163.574,0.000
1732318739.881,-156.738,-257.324,-491.699,-170.898,0.000
1732318739.885,-168.457,-270.996,-548.340,-176.270,0.000
1732318739.890,-149.414,-264.160,-569.336,-177.246,0.000
1732318739.893,-140.137,-245.117,-509.766,-179.199,0.000
1732318739.897,-171.875,-258.301,-471.680,-173.828,0.000
1732318739.901,-172.852,-277.832,-478.516,-172.852,0.000
1732318739.905,-143.555,-301.758,-528.809,-169.922,0.000
1732318739.909,-111.816,-312.012,-558.105,-146.973,0.000
1732318739.913,-111.816,-283.691,-535.156,-134.766,0.000
1732318739.917,-172.852,-285.645,-542.969,-166.992,0.000
1732318739.920,-175.293,-291.504,-536.133,-172.363,0.000
1732318739.924,-132.324,-291.016,-536.133,-135.254,0.000
1732318739.928,-127.930,-306.152,-602.051,-120.117,0.000
1732318739.932,-113.281,-313.965,-695.801,-125.488,0.000
1732318739.937,-91.797,-287.598,-675.293,-137.207,0.000
1732318739.940,-125.977,-288.086,-663.574,-133.789,0.000
1732318739.944,-167.480,-302.734,-697.754,-127.441,0.000
1732318739.948,-155.273,-303.711,-728.516,-111.816,0.000
1732318739.952,-126.953,-319.824,-786.133,-103.516,0.000
1732318739.956,-122.559,-319.336,-786.621,-115.723,0.000
1732318739.960,-147.461,-305.664,-760.254,-133.301,0.000
1732318739.964,-142.578,-305.176,-768.066,-135.254,0.000
1732318739.968,-117.676,-306.641,-772.949,-137.207,0.000
1732318739.971,-102.051,-302.734,-763.184,-150.879,0.000
1732318739.975,-100.586,-330.566,-818.359,-138.184,0.000
1732318739.979,-141.602,-318.359,-804.688,-136.719,0.000
1732318739.984,-155.273,-283.691,-756.836,-150.391,0.000
1732318739.987,-123.535,-293.945,-773.926,-134.277,0.000
1732318739.991,-133.301,-299.805,-747.559,-144.043,0.000
1732318739.995,-183.105,-297.852,-752.441,-161.133,0.000
1732318739.999,-172.852,-288.574,-780.273,-144.043,0.000
1732318740.003,-142.090,-300.293,-795.410,-144.531,0.000
1732318740.007,-137.695,-302.734,-751.465,-126.465,0.000
1732318740.011,-144.043,-299.316,-740.234,-122.070,0.000
1732318740.014,-176.758,-293.457,-728.516,-169.922,0.000
1732318740.018,-171.875,-303.223,-735.840,-168.457,0.000
1732318740.022,-130.371,-338.379,-763.184,-143.066,0.000
1732318740.026,-176.270,-316.406,-689.453,-154.785,0.000
1732318740.030,-211.426,-298.340,-708.496,-163.086,0.000
1732318740.034,-180.176,-308.105,-751.465,-159.180,0.000
1732318740.038,-148.926,-298.340,-734.863,-156.738,0.000
1732318740.042,-154.297,-287.109,-758.789,-149.902,0.000
1732318740.046,-174.805,-271.484,-764.648,-158.203,0.000
1732318740.050,-191.406,-255.371,-746.094,-163.086,0.000
1732318740.054,-172.852,-242.188,-742.188,-173.340,0.000
1732318740.058,-147.949,-223.633,-746.094,-179.688,0.000
1732318740.061,-155.762,-202.148,-755.859,-174.805,0.000
1732318740.065,-154.785,-226.074,-796.875,-161.133,0.000
1732318740.069,-144.043,-227.051,-791.992,-158.203,0.000
1732318740.073,-135.254,-171.387,-741.211,-174.805,0.000
1732318740.078,-137.695,-151.855,-753.418,-173.340,0.000
1732318740.082,-171.875,-130.371,-766.113,-169.434,0.000
1732318740.086,-177.734,-127.441,-798.340,-161.621,0.000
1732318740.090,-153.809,-119.141,-828.125,-148.438,0.000
1732318740.093,-155.273,-88.867,-834.961,-164.062,0.000
1732318740.097,-191.406,-80.566,-857.910,-186.523,0.000
1732318740.101,-229.004,-74.707,-863.281,-189.941,0.000
1732318740.105,-235.840,-49.316,-826.660,-186.035,0.000
1732318740.109,-195.801,-12.695,-816.406,-192.871,0.000
1732318740.113,-170.410,8.789,-812.988,-187.012,0.000
1732318740.117,-200.195,49.316,-771.484,-206.543,0.000
1732318740.120,-201.660,85.449,-800.293,-226.562,0.000
1732318740.125,-212.402,96.680,-840.820,-213.867,0.000
1732318740.129,-231.934,132.324,-824.219,-214.355,0.000
1732318740.133,-210.449,163.574,-860.840,-215.820,0.000
1732318740.136,-203.613,210.938,-893.066,-215.820,0.000
1732318740.140,-205.566,308.105,-841.309,-217.285,0.000
1732318740.144,-208.496,376.465,-832.031,-208.984,0.000
1732318740.148,-225.098,437.988,-822.754,-216.309,0.000
1732318740.152,-220.215,535.645,-828.613,-220.703,0.000
1732318740.156,-184.570,588.379,-917.969,-213.867,0.000
1732318740.160,-197.754,655.273,-952.637,-209.961,0.000
1732318740.164,-253.906,737.305,-906.250,-212.891,0.000
1732318740.167,-251.465,846.680,-924.316,-223.633,0.000
1732318740.172,-231.934,968.262,-928.223,-230.957,0.000
1732318740.176,-206.055,968.262,-935.059,-205.566,0.000
1732318740.179,-198.242,965.332,-935.059,-196.777,0.000
1732318740.183,-207.031,969.238,-915.039,-225.098,0.000
1732318740.187,-231.934,968.750,-932.129,-231.934,0.000
1732318740.191,-232.910,967.773,-953.125,-207.520,0.000
1732318740.195,-204.590,965.332,-954.590,-200.684,0.000
1732318740.199,-189.941,974.609,-950.684,-201.660,0.000
1732318740.203,-172.363,900.879,-941.895,-189.941,0.000
1732318740.207,-167.969,787.598,-916.504,-200.195,0.000
1732318740.210,-162.598,722.168,-890.625,-197.754,0.000
1732318740.214,-169.434,635.254,-882.812,-187.012,0.000
1732318740.218,-175.293,550.781,-850.586,-201.172,0.000
1732318740.222,-177.734,493.164,-844.238,-202.148,0.000
1732318740.226,-188.965,445.801,-818.359,-184.082,0.000
1732318740.230,-181.152,427.246,-727.539,-158.691,0.000
1732318740.234,-168.457,411.621,-720.703,-152.832,0.000
1732318740.238,-172.363,370.605,-735.352,-187.500,0.000
1732318740.242,-193.848,348.145,-688.477,-223.633,0.000
1732318740.246,-199.707,312.500,-722.656,-222.656,0.000
1732318740.249,-202.637,291.992,-686.523,-208.496,0.000
1732318740.253,-234.375,294.434,-556.152,-250.488,0.000
1732318740.257,-238.281,265.625,-552.734,-259.277,0.000
1732318740.261,-233.398,265.625,-540.527,-233.887,0.000
1732318740.265,-226.074,257.812,-537.109,-237.305,0.000
1732318740.269,-197.754,227.051,-611.328,-233.887,0.000
1732318740.273,-191.895,222.656,-597.168,-244.141,0.000
1732318740.277,-202.148,218.262,-539.062,-234.863,0.000
1732318740.281,-212.891,180.176,-551.270,-217.773,0.000
1732318740.285,-211.426,153.809,-581.055,-208.496,0.000
1732318740.289,-177.734,155.273,-579.590,-206.055,0.000
1732318740.292,-160.156,130.859,-628.906,-204.590,0.000
1732318740.296,-170.898,143.066,-561.035,-206.055,0.000
1732318740.300,-191.406,144.043,-466.797,-219.727,0.000
1732318740.304,-188.477,115.234,-479.980,-217.285,0.000
1732318740.308,-160.156,125.488,-469.727,-207.031,0.000
1732318740.312,-172.852,113.281,-505.371,-195.312,0.000
1732318740.316,-173.340,91.797,-502.441,-192.383,0.000
1732318740.320,-147.461,101.562,-457.520,-193.848,0.000
1732318740.324,-151.855,79.102,-465.332,-189.453,0.000
1732318740.328,-165.039,53.223,-464.355,-185.547,0.000
1732318740.331,-173.828,56.152,-484.863,-182.129,0.000
1732318740.335,-153.809,38.086,-573.730,-176.758,0.000
1732318740.339,-125.000,34.180,-563.965,-183.105,0.000
1732318740.343,-153.320,66.406,-392.090,-194.336,0.000
1732318740.347,-187.500,68.359,-372.070,-192.383,0.000
1732318740.351,-187.500,58.594,-435.059,-195.801,0.000
1732318740.355,-190.430,42.969,-475.098,-189.941,0.000
1732318740.359,-180.664,32.227,-523.438,-196.777,0.000
1732318740.363,-189.941,41.504,-462.891,-203.125,0.000
1732318740.367,-188.477,32.227,-428.711,-201.660,0.000
1732318740.370,-167.969,25.879,-456.543,-201.660,0.000
1732318740.374,-158.691,10.254,-458.496,-175.781,0.000
1732318740.378,-179.199,0.977,-473.633,-166.992,0.000
1732318740.382,-177.246,-17.578,-581.055,-168.945,0.000
1732318740.386,-153.320,-10.254,-550.293,-174.316,0.000
1732318740.390,-156.250,17.578,-381.348,-195.801,0.000
1732318740.394,-160.645,-1.953,-403.809,-172.363,0.000
1732318740.398,-174.805,-0.488,-425.293,-171.387,0.000
1732318740.401,-175.293,12.207,-456.543,-190.430,0.000
1732318740.406,-171.875,18.555,-505.859,-185.547,0.000
1732318740.409,-188.477,25.391,-445.312,-173.340,0.000
1732318740.413,-202.637,6.348,-424.316,-171.875,0.000
1732318740.417,-193.848,-15.625,-473.145,-187.500,0.000
1732318740.421,-178.223,-15.625,-442.871,-202.148,0.000
1732318740.425,-175.293,-50.781,-505.859,-182.129,0.000
1732318740.429,-197.754,-59.082,-531.738,-178.223,0.000
1732318740.433,-194.824,-19.531,-401.367,-185.547,0.000
1732318740.437,-178.223,-47.363,-401.855,-186.523,0.000
1732318740.440,-166.504,-71.777,-434.082,-193.848,0.000
1732318740.444,-174.805,-56.641,-433.594,-177.246,0.000
1732318740.448,-209.473,-56.641,-479.004,-184.082,0.000
1732318740.453,-207.031,-27.344,-470.215,-224.609,0.000
1732318740.456,-189.941,-18.555,-396.484,-221.191,0.000
1732318740.460,-187.500,-38.574,-381.348,-190.918,0.000
1732318740.464,-195.801,-36.621,-381.836,-172.852,0.000
1732318740.468,-187.012,-53.223,-410.156,-159.180,0.000
1732318740.472,-169.434,-60.547,-460.938,-179.199,0.000
1732318740.476,-181.641,-44.434,-446.289,-199.219,0.000
1732318740.480,-198.730,-62.988,-442.383,-197.754,0.000
1732318740.484,-200.195,-79.102,-425.781,-203.125,0.000
1732318740.487,-196.777,-40.527,-359.375,-216.309,0.000
1732318740.491,-194.336,-48.340,-375.488,-208.008,0.000
1732318740.495,-189.453,-70.801,-437.988,-185.547,0.000
1732318740.500,-212.891,-56.152,-357.910,-166.992,0.000
1732318740.503,-210.938,-50.293,-300.781,-171.387,0.000
1732318740.507,-179.199,-36.621,-352.539,-205.566,0.000
1732318740.511,-179.688,-53.223,-350.098,-222.656,0.000
1732318740.515,-203.125,-87.402,-371.582,-220.215,0.000
1732318740.519,-218.262,-75.684,-424.805,-207.031,0.000
1732318740.523,-209.473,-28.320,-377.930,-218.262,0.000
1732318740.527,-189.941,-24.414,-334.473,-206.055,0.000
1732318740.531,-179.688,-64.453,-367.188,-166.504,0.000
1732318740.534,-214.355,-66.895,-346.191,-189.453,0.000
1732318740.538,-251.953,-83.008,-432.617,-245.117,0.000
1732318740.542,-255.371,-74.707,-465.332,-267.578,0.000
1732318740.547,-292.480,-40.039,-272.461,-285.156,0.000
1732318740.550,-313.477,-65.918,-301.758,-277.832,0.000
1732318740.554,-300.781,-71.289,-337.891,-290.039,0.000
1732318740.558,-306.152,-75.195,-288.574,-306.641,0.000
1732318740.562,-340.332,-79.102,-281.250,-320.312,0.000
1732318740.566,-367.676,-93.750,-296.875,-341.309,0.000
1732318740.570,-351.562,-102.539,-333.984,-342.285,0.000
1732318740.574,-343.262,-99.609,-349.121,-341.797,0.000
1732318740.578,-368.652,-93.262,-322.266,-357.910,0.000
1732318740.581,-367.676,-116.211,-369.629,-335.449,0.000
1732318740.585,-343.750,-137.207,-534.180,-308.594,0.000
1732318740.589,-334.961,-110.840,-548.828,-327.148,0.000
1732318740.594,-347.656,-140.137,-488.281,-345.703,0.000
1732318740.597,-392.578,-159.668,-565.918,-379.883,0.000
1732318740.601,-369.629,-136.230,-702.148,-379.395,0.000
1732318740.605,-313.965,-157.715,-833.984,-340.332,0.000
